# ================= DQRFIT RESULTS ================
# INPUT FILE: series/CASI.rad
# OUTPUT: LDETRENDED
# FILTER FUNCTION: f(t)
# f(t)=+line(t)
# line(t)=+P 1+P 2*t
# heav(t)=(t<0?0:1)
# TOTAL OBSERVATIONS MTOT=  267
# INITIAL TIME INTERVAL= 2017.3384 - 2006.6119 = 10.7265
# TOTAL OBSERVATIONS AFTER PREFILTER M=  265
# TIME-SPAN=    0.0000 -    0.0000 =  0.0000
# OBSERVATIONS: USED M=   265 REJECTED MTOT-M=     2 %USED=   99.2509
# N=  2 PARAMETERS
# MAXSIG= 175.00000
# MAXRES=  32.09459
# SCALE FACTOR FOR LENGTHS: SCL=  10.00000
# SCALE FACTOR FOR SIGMAS: SCLSIG=   1.00000
# CHI^2=    359.255 DOF=   263 CHI^2/DOF=   1.36599
# RMS=      6.765 SDEV=      6.776 MEAN=    0.15276
#  P #       PARAMETER +-    SIGMA %error PARAMETER NAME
# P 1 =      3074.94594 +-  219.404   7.14 YZERO                              
# P 2 =        -1.52451 +-    0.109   7.16 SLOPE                              
#       T            LDETRENDED       SIG_OBS
     2006.61191        -1.60992         6.73437
     2006.61465        -0.13474         6.68645
     2006.61739         1.56843         6.74605
     2006.62013        -2.56939         6.90617
     2006.62287         3.05478         6.91552
     2006.62560        -6.72005         6.76475
     2006.62834         1.47413         6.81969
     2006.63108        -5.46570         6.72502
     2006.63382        -0.46253         6.67125
     2006.63656        -3.07735         6.76592
     2007.02807         0.71051         6.86877
     2007.03081        -2.27631         6.65957
     2007.03354       -12.11014         6.56490
     2007.03628        -8.41796         6.58477
     2007.03902       -11.18579         6.57659
     2007.04176       -12.06662         6.62567
     2007.04449        -6.15644         6.58944
     2007.04723       -14.15227         6.65606
     2007.04997        -9.40409         6.83722
     2007.05271        -4.57292         6.89799
     2007.05545        -6.57275         6.53217
     2007.05818        -9.78357         6.56256
     2007.06092        -8.56240         6.48893
     2007.06366       -10.24923         6.50763
     2007.06640        -7.94105         6.62684
     2007.06914        -6.25988         6.49127
     2007.07187        -1.63870         6.47841
     2007.07461        -5.25853         6.46322
     2007.07735        -4.30436         6.44335
     2007.08009        -5.91918         6.47841
     2007.08282        -4.81601         6.51347
     2007.08556        -2.78983         6.61983
     2007.08830        -7.56766         6.57425
     2007.09104        -4.05349         6.56724
     2007.09378        -5.83031         6.47490
     2007.09651        -6.67314         6.49594
     2007.09925        -8.82796         6.53334
     2007.10199        -5.19679         6.59879
     2007.10473        -4.23262         6.72619
     2007.10747        -4.10044         6.63853
     2007.11020       -11.08027         6.44802
     2007.11294        -4.78710         6.59762
     2007.11568        -2.90092         6.49945
     2007.11842        -6.26675         6.49945
     2007.12115        -7.02557         6.47490
     2007.12389       -12.20440         6.49828
     2007.12663        -8.23123         6.53919
     2007.12937        -5.67305         6.70398
     2007.13211        -1.37388         6.54620
     2007.13484        -2.15870         6.56373
     2007.13758        -1.11853         6.71099
     2007.14032         6.56964         6.62801
     2007.14306         4.49082         6.64204
     2007.14557        -7.23636         7.33160
     2007.71527         8.72516         6.74605
     2007.71801         8.28233         6.67359
     2007.72074         3.21951         6.65139
     2007.72348         2.73068         6.71333
     2007.72622        -0.04814         6.69112
     2007.72896         1.82003         6.69229
     2007.73170         3.23820         6.76359
     2007.73443         2.36038         6.68294
     2007.73717         0.01755         6.86527
     2007.73991        12.21573         6.82086
     2007.74265         4.72890         6.78462
     2007.74538         7.56007         6.78112
     2007.74812         5.97325         6.95643
     2007.75086         3.71942         7.08032
     2007.75360        32.09459         7.25797
     2007.75634         3.57877         7.02188
     2007.75907         9.51494         6.78462
     2007.76181         8.06012         6.72502
     2007.76455        -4.96671         6.68645
     2007.76729         2.98646         7.19953
     2007.77003         0.53564         7.21239
     2007.77276        10.30681         7.05227
     2007.77550         1.61599         6.63970
     2007.77824         7.02016         6.70982
     2007.78098         9.24133         6.64320
     2007.78371         1.54851         6.70164
     2007.78645         7.03668         6.70982
     2007.78919         5.99286         6.79982
     2007.79467        13.99120         6.97046
     2007.80014         7.83355         7.08616
     2007.80288         0.83872         6.73670
     2007.80562         0.99990         6.64671
     2007.80836        -1.48893         6.82553
     2007.81109         4.15425         6.91903
     2007.81383         2.29942         6.82670
     2007.81657        -2.94241         6.95877
     2007.81931        -1.42923         6.78462
     2007.82204        -4.14106         6.79631
     2007.82478         3.57812         6.87345
     2007.82752        -2.27971         6.81969
     2007.83000       -11.39494         7.54081
     2008.61602         0.15237         6.67125
     2008.61876        -1.15846         6.69463
     2008.62150        -1.04828         6.76008
     2008.62423         2.12189         6.75424
     2008.62697        -0.46894         6.74372
     2008.62971         2.09524         6.72385
     2008.63245         7.03741         6.74255
     2008.63519        -0.36341         6.73086
     2008.63792         9.58176         7.15395
     2008.64066         5.74493         6.76008
     2008.64340         3.09211         6.67476
     2008.64614         3.58828         6.85592
     2008.64888         7.22146         6.81150
     2008.65161         3.42063         6.98916
     2008.65435         4.66880         6.80683
     2008.65709         4.03298         6.90150
     2008.65983         0.42915         6.72268
     2008.66256        10.33633         6.86059
     2008.66530         2.40250         6.86410
     2008.66804         6.17167         6.86644
     2008.67078        -0.54715         6.86293
     2008.67352         1.82802         6.75657
     2008.67625         0.11319         7.35614
     2008.67899         1.95737         6.79982
     2008.68173         2.40254         6.79280
     2008.68447         5.87272         6.76592
     2008.68721         0.64589         6.75073
     2008.68994         1.88206         6.84774
     2008.69268        -0.12576         6.90033
     2008.69542         4.36841         6.74605
     2008.69816         5.12859         6.88631
     2008.70089         7.39776         6.72268
     2008.70363         1.95393         6.71333
     2008.70637         3.96711         6.75657
     2008.70911         1.65128         6.84423
     2008.71185        -0.71554         7.02305
     2008.71458        -2.87437         6.69112
     2008.71732         2.50680         6.68294
     2008.72006         3.30698         6.79631
     2008.72280        -1.08985         6.74138
     2008.72554         2.09932         6.73086
     2008.72827         2.86150         6.67242
     2008.73101         0.54767         6.71333
     2008.73375         3.91485         6.84540
     2008.73649         7.61802         6.69112
     2008.73922         3.40919         6.76242
     2008.74470         1.09954         6.69814
     2008.74744         1.59372         6.79748
     2008.75018         2.11589         6.67827
     2008.75291         5.71206         6.78229
     2008.75565         1.33224         6.95526
     2008.75839        -3.53559         6.89566
     2008.76113         0.45559         6.67944
     2008.76387         1.51476         6.69463
     2008.76660        -2.45807         6.74372
     2008.76934         3.56711         6.78345
     2008.77208         1.35728         6.60580
     2008.77482         2.10445         6.52048
     2008.77755         6.34763         6.55789
     2008.78029         1.33980         6.56607
     2008.78303         1.08198         6.57425
     2008.78577        -4.23085         6.59996
     2008.78851        -2.28168         6.65840
     2008.79124        -0.47050         6.74722
     2008.79398        -5.73733         6.55789
     2008.79672        -2.57715         6.56840
     2008.80493         0.74237         7.39939
     2008.80767         1.86554         7.30939
     2008.81041        -1.04328         7.27199
     2008.81315         0.22889         7.37368
     2008.81588         1.79806         7.55250
     2008.81862        -5.28676         7.65651
     2008.82136        -3.20359         7.66586
     2008.82684        -1.59724         6.70865
     2011.84395         6.70038         6.55905
     2011.84669         1.28056         6.56957
     2011.84942        -0.10827         6.52399
     2011.85216        -4.37810         6.57892
     2011.85490        -5.15792         6.70632
     2011.85764        -2.80175         6.65022
     2011.86037         4.08443         6.59061
     2011.86311        10.40260         6.53685
     2011.86585         5.48777         6.63152
     2011.86859         2.90995         6.57425
     2011.87133         2.97412         6.58360
     2011.87406        -2.92170         6.54503
     2011.87680        17.96747         6.94942
     2011.87954       -19.48436         6.80683
     2011.88228         0.70482         6.57191
     2011.88502        -3.21101         6.52048
     2011.88775        -7.29383         6.53217
     2011.89049        -3.15666         6.72151
     2011.89323         0.50251         6.65489
     2011.89597        11.44569         6.65489
     2011.89870        -8.32214         6.83488
     2011.90144        -6.60197         6.55438
     2011.90418        -3.54979         6.58827
     2011.90692        -3.63162         6.61632
     2011.90966         0.98356         6.56957
     2011.91239        -2.20827         6.79865
     2011.91513         0.15590         6.58944
     2011.91787         3.66208         6.74722
     2011.92061        -4.02275         6.59879
     2011.92334        -2.25257         6.66658
     2011.92608        -2.44040         6.70749
     2011.92851         0.51430         7.68690
     2013.80972         8.78623         6.47490
     2013.81246         8.77841         6.46906
     2013.81520         7.01458         6.47490
     2013.81794         3.69876         6.43400
     2013.82068         6.84893         6.58944
     2013.82341         7.25510         6.47724
     2016.37783        -0.52866         6.40244
     2016.38057        14.62952         6.84423
     2016.38330        10.98169         6.44452
     2016.38604         6.26186         6.45503
     2016.38878        15.66104         6.38491
     2016.39152         8.66221         6.41763
     2016.39426         3.92438         6.42582
     2016.39699        10.91856         6.47373
     2016.39973         9.00673         6.40478
     2016.40247         7.82491         6.48308
     2016.40521         2.71708         6.40595
     2016.40794         1.81525         6.43517
     2016.41068        -0.48857         6.47724
     2016.41342        -1.51740         6.44452
     2016.41616         1.57278         6.52048
     2016.41890         8.42795         6.59529
     2016.42163         6.78612         6.48308
     2016.42437        -0.69870         6.39893
     2016.42709         4.34044         6.59061
     2016.42989         5.99871         7.67054
     2016.43525        21.85588         8.75982
     2016.44386         2.41000         7.42393
     2016.44627         3.74169         6.39543
     2016.44883        11.54658         7.30472
     2016.45748        12.39977         7.82598
     2016.45983        17.26435         6.91903
     2016.53398         6.90240         7.89962
     2017.25668        -6.52284         6.43517
     2017.25942       -10.77667         6.46438
     2017.26215         6.76751         6.58243
     2017.26489        -1.18132         6.57425
     2017.26763        -5.62915         6.49010
     2017.27037        -2.45097         6.47373
     2017.27311       -11.30880         6.74489
     2017.27584        -1.14762         6.48308
     2017.27858        -1.64745         6.63502
     2017.28132        -6.96728         6.51113
     2017.28406        -3.23210         6.44685
     2017.28679        -8.51393         6.42582
     2017.28953        -5.56775         6.42932
     2017.29227         0.85742         6.56373
     2017.29501        -8.46141         6.58126
     2017.29775       -12.31623         6.41530
     2017.30048        -7.26606         6.46555
     2017.30322        -9.37888         6.43049
     2017.30596        -9.15071         6.42815
     2017.30870        -9.26754         6.55555
     2017.31144         7.73964         6.64087
     2017.31417        -5.79619         6.46672
     2017.31691       -11.23102         6.61048
     2017.31965        -7.69184         6.76008
     2017.32239        -7.34667         6.57074
     2017.32512       -11.75149         6.44919
     2017.32786       -12.88232         6.45503
     2017.33060       -11.78215         6.44919
     2017.33334       -13.46097         6.42815
     2017.33608       -10.51680         6.39543
     2017.33842       -11.62123         7.72781
