# ================= DQRFIT RESULTS ================
# INPUT FILE: series/CHST.rad
# OUTPUT: LDETRENDED
# FILTER FUNCTION: f(t)
# f(t)=+line(t)+annual(t)
# line(t)=+P 1+P 2*t
# annual(t)=+P 3*sin(2*pi*t+P 4)
# heav(t)=(t<0?0:1)
# TOTAL OBSERVATIONS MTOT= 1174
# INITIAL TIME INTERVAL= 2019.8902 - 2016.6708 =  3.2195
# TOTAL OBSERVATIONS AFTER PREFILTER M= 1164
# TIME-SPAN= 2019.8902 - 2016.6708 =  3.2195
# OBSERVATIONS: USED M=  1164 REJECTED MTOT-M=    10 %USED=   99.1482
# N=  4 PARAMETERS
# MAXSIG= 175.00000
# MAXRES=  43.21786
# SCALE FACTOR FOR LENGTHS: SCL=  10.00000
# SCALE FACTOR FOR SIGMAS: SCLSIG=   1.00000
# CHI^2=   1085.865 DOF=  1160 CHI^2/DOF=   0.93609
# RMS=      6.363 SDEV=      6.362 MEAN=    0.23065
#  P #       PARAMETER +-    SIGMA %error PARAMETER NAME
# P 1 =      -970.31003 +-  379.309  39.09 YZERO                              
# P 2 =         0.48375 +-    0.188  38.85 SLOPE                              
# P 3 =         5.53123 +-    0.230   4.15 ANNUAL AMPLITUDE                   
# P 4 =        -2.76904 +-    0.055   1.97 ANNUAL PHASE                       
#       T            LDETRENDED       SIG_OBS
     2016.67077         6.70137        10.00220
     2016.67351        13.92905         7.36184
     2016.67624        17.96572         7.23703
     2016.67898        11.09640         7.57663
     2016.68172        18.14907         8.49094
     2016.68446        15.58975         7.47020
     2016.68720         1.55642         8.51512
     2016.68993         9.84010         6.91775
     2016.69267        14.52677         6.01022
     2016.69541        17.17545         7.01547
     2016.69815        11.62713         6.06634
     2016.70089        19.13980         5.55742
     2016.70362        16.09248         5.70739
     2016.70636        11.99515         6.08569
     2016.70910        17.34483         6.85777
     2016.71184        11.49950         9.10337
     2016.71457        10.24918         9.64035
     2016.71731        27.34585         8.59446
     2016.72005        17.82353         5.50808
     2016.72279        16.63021         5.78189
     2016.72553        13.97988         5.71126
     2016.72826        11.58556        11.91498
     2016.73100        13.98523         6.98741
     2016.73374         9.98591         7.67919
     2016.73648        15.70858         6.80358
     2016.73921        -0.89474         7.64823
     2016.74195        11.21793         7.91042
     2016.74469         9.51261         6.56074
     2016.74743        11.40029         6.15341
     2016.75008        17.13901         9.29785
     2016.75317         5.99551         9.40234
     2016.75563        12.25432         8.89246
     2016.75936       -32.08249        35.89781
     2016.76112        48.21566        31.24792
     2016.76471        12.88093        24.13666
     2016.76755         1.34255        10.80234
     2016.76933        19.82269         9.80386
     2016.77115        45.11281        31.06796
     2016.77501         0.73894         7.23220
     2016.77754         8.72972         5.54678
     2016.78028         8.58739         5.55452
     2016.78300        33.71308        53.68369
     2016.78574         6.23975        15.87697
     2016.78961         8.65088        17.76846
     2016.79221        22.36962        13.87904
     2016.79497        16.21629        12.78478
     2016.79773        -1.32705        11.64311
     2016.79931        -8.98281         8.15424
     2016.80316        -9.78868        11.76889
     2016.80492         4.61647         6.83164
     2016.80805        -5.89004         8.05265
     2016.81040         0.50782        10.04477
     2016.81296        10.80058        15.72216
     2016.81687         1.48669        10.61367
     2016.81861       -12.58115        14.04642
     2016.82132         1.79954        16.56003
     2016.82506         4.00273         9.08693
     2016.82683         9.57988         7.12093
     2016.82911         5.31577         7.34152
     2016.83313        31.22583       112.65196
     2016.83888         5.28705        12.56032
     2016.84052       -12.58874         8.79764
     2016.84325         1.79893         6.83261
     2016.84970        19.43681        34.42525
     2016.85243        19.52549        15.93018
     2016.85478        18.04535         8.12425
     2016.85694         9.61831         8.88181
     2016.85968        10.53498        10.19570
     2016.86241        10.74866        11.68568
     2016.86516        31.86233        12.04173
     2016.86771        18.32910         9.41782
     2016.87160        10.59422        13.98644
     2016.87414        34.43099        26.82636
     2016.87610       -11.06996         6.76101
     2016.87872       -12.11923         6.52397
     2016.88161        -7.52263         5.16848
     2016.88425        -5.68390         5.67062
     2016.88979        -3.60658         9.87158
     2016.89205         0.29933         6.97774
     2016.89534        -6.80127         7.17414
     2016.89778        -5.78345         7.01644
     2016.90037        -3.57570         7.92881
     2016.90622        -4.74053         5.83123
     2016.90859        -2.27168         6.37304
     2016.91135         1.44799         6.49011
     2016.91447       -17.70552         6.91098
     2016.91718       -15.96383         5.23911
     2016.91991       -11.72015         5.24588
     2016.92265       -11.56248         5.74415
     2016.92539       -11.21680         5.17041
     2016.92813         8.46387         5.33199
     2016.93086       -10.70345         5.15010
     2016.93360        -0.69978         5.10366
     2016.93634         3.87790         5.20234
     2016.93908        -2.79042         5.31361
     2016.94182        -8.26275         5.24588
     2016.94455       -14.42107         5.58451
     2016.94729       -12.78340         5.95314
     2016.95003        -0.01572         6.17083
     2016.95368         2.60051         8.33420
     2016.95551        -1.92137         5.20718
     2016.95824         1.69630         5.18590
     2016.96098         2.80498         5.17719
     2016.96372         0.11266         5.17912
     2016.96646         0.88533         5.15687
     2016.96895         1.04713         6.19985
     2016.97198         0.46966         5.96668
     2016.97467         4.33536         5.27394
     2016.97741        -3.71697         5.14719
     2016.98015        -1.97529         5.17525
     2016.98288        -6.06262         5.22073
     2016.98562        -0.99694         5.22556
     2016.98836        -5.52326         5.61547
     2016.99384         6.54209         5.88154
     2016.99657       -10.26924         5.43745
     2016.99931         3.97444         5.74222
     2017.00479        -0.93321         6.15825
     2017.00752         1.05746         5.59322
     2017.01300         5.38182         5.47422
     2017.01574         5.62749         5.49260
     2017.01848         5.68516         5.56806
     2017.02122         2.91684         5.70352
     2017.02396        -1.80448         5.51679
     2017.02669        -6.74681         5.90766
     2017.02943         8.39187         5.44906
     2017.03217         4.47054         5.30587
     2017.03491         0.75022         5.31457
     2017.03765        -0.37011         5.59709
     2017.04038         0.62257         5.41229
     2017.04312         0.94124         5.38907
     2017.04586        -1.10108         5.84768
     2017.04860        -3.87640         5.97539
     2017.05133         1.80127         5.46551
     2017.05407         4.09895         5.56323
     2017.05681        -1.75438         5.78479
     2017.05955        -8.03570         5.54775
     2017.06228         4.38098         5.71996
     2017.06502         0.37065         5.60870
     2017.06776         0.03633         5.33199
     2017.07049       -10.84900         5.46841
     2017.07324        -0.24132         5.79446
     2017.07597        -6.13965         5.57774
     2017.07769        -0.29048        11.68471
     2017.08145        -3.53130         5.63192
     2017.08418        -2.40762         5.54678
     2017.08693        -1.75795         5.42777
     2017.08966        -0.68527         5.60386
     2017.09240        -6.07360         5.77124
     2017.09514        -6.15392         5.82833
     2017.10335        -1.07689         5.46841
     2017.10608        -2.00321         5.38327
     2017.10853        -3.06840         6.34982
     2017.11157        -2.56487         6.17276
     2017.11431       -14.41919         5.83026
     2017.11704        -8.40752         5.27974
     2017.11978        -3.41284         5.31941
     2017.12251        -3.07716         5.55645
     2017.12525        -7.34348         5.49163
     2017.12799        -5.66381         5.65514
     2017.13067         1.61589         5.64063
     2017.13350         0.88252         5.71706
     2017.13621        -7.13379         5.59128
     2017.13895        -6.16811         5.45099
     2017.14168       -12.07443         5.41229
     2017.14442        -3.20176         5.42584
     2017.14715       -11.48708         5.34167
     2017.14989        -3.61041         5.29232
     2017.15264         0.08627         5.38133
     2017.15537         1.13394         5.34457
     2017.15810        -1.62138         5.49550
     2017.16084        -6.58070         5.58645
     2017.16358       -10.02103         5.52259
     2017.16632        -1.01336         5.50711
     2017.16906       -13.52268         5.65901
     2017.17180        -3.85800         5.33683
     2017.17454        -4.62233         5.33973
     2017.17727       -17.10265         5.92024
     2017.18001       -10.45298         9.81256
     2017.18275        -6.59430         5.30780
     2017.18549       -16.92163         5.29232
     2017.18822       -12.93595         5.49260
     2017.19095        -5.04327         5.64450
     2017.19376         1.18937         6.14277
     2017.19644        -5.91492         5.55936
     2017.19917       -18.30424         5.55645
     2017.20191        -4.31057         5.47131
     2017.20346        17.62068        24.39596
     2017.20741       -19.08523        18.46991
     2017.21013        -8.45154         5.95217
     2017.21286        -0.28287         5.32812
     2017.21561        -1.39120         5.32232
     2017.21755       -19.55113        11.00068
     2017.22114        -0.85987         5.96862
     2017.22381         0.21583         5.89122
     2017.22655       -11.77649         5.54194
     2017.22930       -13.52182         5.41036
     2017.23203        -9.88814         5.67352
     2017.23477       -10.45846         5.54581
     2017.23749       -13.65078         5.36779
     2017.24023        -9.86411         5.45099
     2017.24297       -11.03944         5.64837
     2017.24561        -4.03071         6.42819
     2017.24837       -12.76305         6.34692
     2017.25125        -9.67744         8.02072
     2017.25370        -2.10462         7.08223
     2017.25673         1.15291         7.25058
     2017.25941       -13.26239         6.20566
     2017.26190       -15.33159         6.52010
     2017.26464         2.86708         6.85777
     2017.26762       -13.63236         5.59419
     2017.27036         5.86532         5.37456
     2017.27310        -9.15601         5.45777
     2017.27583       -12.88233         5.19847
     2017.27857       -13.90266         5.35908
     2017.28131       -19.43498         5.22073
     2017.28405       -23.32830         5.21299
     2017.28674        -9.42261         5.79737
     2017.28951        -2.58395         5.98313
     2017.29238        -6.14934         5.38230
     2017.29492       -14.00157         6.04795
     2017.29780       -11.08096         5.45099
     2017.30047       -26.29225         5.47615
     2017.30320       -10.62457         5.71900
     2017.30610        -5.76997         5.42971
     2017.30869       -13.76222         5.13171
     2017.31143       -12.11955         5.13945
     2017.31416       -16.39887         5.21105
     2017.31690       -12.48420         5.21782
     2017.31964       -14.97152         5.34457
     2017.32232        -9.61282         5.96765
     2017.32518        -7.93620         5.74028
     2017.32785       -18.58150         5.28361
     2017.33059       -10.40182         5.13752
     2017.33333       -15.74614         5.29813
     2017.33607       -22.79247         5.26330
     2017.33880        -3.59279         5.73932
     2017.34154        -6.32212         5.54775
     2017.34428        -7.25544         5.38037
     2017.34702        -4.07677         5.49260
     2017.34974        -0.51408         5.72287
     2017.35249        -7.50042         6.50752
     2017.35518        -4.24371         6.27726
     2017.35810       -16.16413         5.46067
     2017.36071       -15.38339         5.16848
     2017.36344       -16.62871         5.17041
     2017.36618       -19.94704         5.20331
     2017.36892        -5.84836         5.12688
     2017.37166       -17.22669         5.17622
     2017.37440        -8.04201         5.14719
     2017.37708        -1.94831         5.79446
     2017.37987        -4.96466         6.41658
     2017.38261        -2.07898         5.78769
     2017.38535         0.12769         6.02667
     2017.38809         1.81737         6.16309
     2017.39082         8.44104         5.72480
     2017.39356        -1.79928         5.42197
     2017.39630         4.21839         5.83510
     2017.39904         2.99707         6.67297
     2017.40177        -3.11226         5.85445
     2017.40451         3.03642         5.58064
     2017.40725        -1.08490         5.42294
     2017.41006         3.34874         5.85348
     2017.41264        -3.04451         5.49453
     2017.41549       -13.71089         6.13793
     2017.41820         1.75380         5.46938
     2017.42088         1.40750         6.27435
     2017.42374         1.03612         6.27048
     2017.42653        -0.27323         5.60290
     2017.42915        -0.66150         5.65321
     2017.43189         5.04218         5.44229
     2017.43480        -6.37023         5.58258
     2017.43739        -0.66848         5.56032
     2017.44010        -9.69580         5.30393
     2017.44284       -10.12212         5.59419
     2017.44547         7.19961         6.61395
     2017.44832        -3.17277         5.86122
     2017.45112         7.19288         6.09536
     2017.45379        -3.26342         5.64160
     2017.45653        -3.29474         5.60386
     2017.45925         3.01894         5.61354
     2017.46213         0.11155         5.69578
     2017.46475         2.20228         5.84768
     2017.46748         4.30696         6.32176
     2017.47022        -1.63037         5.87187
     2017.47296         0.76331         5.54678
     2017.47570        -0.33601         5.56806
     2017.47843         0.25666         5.78576
     2017.48117         3.07534         5.62225
     2017.48391        -1.28899         5.89315
     2017.48665         6.62769         5.54388
     2017.48939         0.06936         6.25113
     2017.49212         6.69704         5.57580
     2017.49486         2.79171         5.37263
     2017.49760        -4.34861         5.37263
     2017.50034         5.12007         5.47712
     2017.50308         6.25374         5.82349
     2017.50581        -0.06758         5.70835
     2017.50855        -2.77991         5.46551
     2017.51129        -6.66523         5.51292
     2017.51403        -0.07256         5.65611
     2017.51680         3.07510         5.59322
     2017.51950         1.04479         5.41229
     2017.52224         8.70347         5.56419
     2017.52498         0.08215         5.43455
     2017.52772         2.10182         5.44229
     2017.53045         4.42750         5.55258
     2017.53319         0.13917         5.52743
     2017.53593         7.17885         5.27781
     2017.53867         3.02252         5.36392
     2017.54141        13.38320         5.33102
     2017.54414         7.28587         5.26910
     2017.54688         6.21055         5.25846
     2017.54962         6.97423         5.39101
     2017.55236         2.70390         5.57193
     2017.55509        10.38258         5.33489
     2017.55783         7.02125         5.35908
     2017.56057         4.74393         5.21105
     2017.56331         6.45660         5.27781
     2017.56605         4.72628         5.29716
     2017.56878         1.03095         5.59612
     2017.57152        11.52763         5.95991
     2017.57426         2.99331         5.60096
     2017.57700         0.20098         5.47712
     2017.57974         3.49766         5.41810
     2017.58247         6.91833         5.37359
     2017.58521         4.15301         5.76834
     2017.58795         1.91868         5.88057
     2017.59069         3.22436         5.99861
     2017.59342         3.77203         5.51775
     2017.59616         4.34171         5.51679
     2017.59890         7.21939         5.40649
     2017.60164         4.06606         5.34747
     2017.60438         4.62874         5.34263
     2017.60711         5.64141         5.20718
     2017.60985         0.14809         5.38617
     2017.61259         4.50676         5.68126
     2017.61544         6.23238         5.66191
     2017.61807         8.71211         5.40068
     2017.62080         7.02279         5.84284
     2017.62354         5.09447         5.65321
     2017.62628        10.01914         5.67352
     2017.62902         8.30082         5.95507
     2017.63175         5.56549         5.49550
     2017.63449         3.95017         5.36489
     2017.63723         6.91684         5.51292
     2017.63997         5.89952         5.61451
     2017.64271         9.17919         5.63386
     2017.64544        14.64287         5.63289
     2017.64818        10.78955         5.39875
     2017.65092         8.37522         5.53517
     2017.65366         8.87290         5.87090
     2017.65639         9.77757         5.73641
     2017.65913         9.57325         5.48389
     2017.66187        15.27192         5.59709
     2017.66461        14.80060         7.58534
     2017.66735         9.72427         5.87961
     2017.67008         9.74795         6.44270
     2017.67282        16.51563         6.17857
     2017.67556        17.76130         5.71996
     2017.67830         9.13398         5.88541
     2017.68104        10.18765         5.99280
     2017.68374        12.77634         7.19736
     2017.68681        20.09586         6.69813
     2017.68915        15.65173         6.25694
     2017.69203         5.91933         5.98506
     2017.69472         7.97603         6.09826
     2017.69746        13.87571         6.22888
     2017.70020        18.32638         5.84671
     2017.70294        17.53606         6.03344
     2017.70568         6.54873         5.56613
     2017.70841        11.33741         5.14236
     2017.71115         6.91408         5.38230
     2017.71389        -5.04724         6.00925
     2017.71663         4.70343         5.70255
     2017.71934         5.31712         5.92798
     2017.72210         1.44979         5.47228
     2017.72492         4.77042         5.59806
     2017.72758        11.26014         5.62321
     2017.73032        14.08381         5.48292
     2017.73305        10.94449         6.82294
     2017.73579         7.86416         6.26371
     2017.73853        11.07084         5.98603
     2017.74127        11.58351         5.46357
     2017.74401         8.33119         7.45182
     2017.74680        12.25784         6.28887
     2017.74951         5.00653         6.13600
     2017.75222        12.63522         6.43206
     2017.75504         8.20285         5.65804
     2017.75770         7.45557         5.50034
     2017.76043        10.38124         5.48196
     2017.76312        13.93994         5.55355
     2017.76607         2.56452         7.49633
     2017.76865        12.06227         5.65514
     2017.77141         4.57393         5.55742
     2017.77409         5.07464         5.81285
     2017.77685         7.22730         5.93669
     2017.77957         2.74598         5.55162
     2017.78225         0.45169         6.69329
     2017.78468         6.15351         6.47366
     2017.78789         5.19796         5.62128
     2017.79055        10.97367         5.53323
     2017.79340        20.77330         6.96129
     2017.79577         7.02215         6.47753
     2017.79935       -10.49658        16.21850
     2017.80133        -1.64954         6.27435
     2017.80428         9.34403         5.20041
     2017.80696        10.65673        10.67656
     2017.80992        -0.10770         5.74222
     2017.81245        -3.45492         5.44519
     2017.81477        -0.85104         7.31734
     2017.81800       -12.26361         7.16640
     2017.82072         0.95308         5.37746
     2017.82340         4.84978         5.37843
     2017.82614         4.68146         5.32328
     2017.82859        -2.00973         5.89218
     2017.83153         6.82185         5.83897
     2017.83436         2.65348         5.28265
     2017.83709        -2.00684         5.25362
     2017.83983        -9.58917         5.14816
     2017.84257        -3.27449         5.10559
     2017.84531        -4.58581         5.14042
     2017.84804        -5.16914         5.20138
     2017.85078         5.96954         5.13945
     2017.85352         5.39621         5.18396
     2017.85626        -7.06911         5.34941
     2017.85900        -7.75444         5.21008
     2017.86173         4.52124         5.28265
     2017.86447        -0.62409         5.76834
     2017.86721         1.64459         5.31941
     2017.86995        -5.29673         5.19460
     2017.87269         2.45894         5.07173
     2017.87542         0.83562         5.14913
     2017.87816        -1.18171         5.18106
     2017.88090         5.44097         5.12397
     2017.88364         8.35664         5.30006
     2017.88637         0.08832         5.23427
     2017.88911         3.71299         5.32619
     2017.89185        -8.52033         5.24298
     2017.89459        -3.95965         5.30877
     2017.89733        -4.66198         5.21686
     2017.90006         7.13970         5.23911
     2017.90280        -0.82663         5.31844
     2017.90554         3.26805         5.13365
     2017.90828         1.88572         5.13268
     2017.91102        -4.41460         5.27974
     2017.91375         1.94207         5.34941
     2017.91649         8.01675         5.16654
     2017.91923        -0.49157         5.17622
     2017.92197        -3.51390         5.11817
     2017.92470        -3.49522         5.16364
     2017.92744        -5.59155         5.14236
     2017.93018        -0.97887         5.19460
     2017.93292         0.84880         5.13365
     2017.93566         3.07948         5.22653
     2017.93839         3.47915         5.19460
     2017.94113         1.83583         5.20912
     2017.94387         7.08151         5.14042
     2017.94661         6.24918         5.21782
     2017.94935         7.52086         5.20428
     2017.95208         4.92853         5.27878
     2017.95482         5.05721         5.21299
     2017.95756         3.58288         5.21976
     2017.96030         0.16556         5.13268
     2017.96303        -5.81177         5.15300
     2017.96577        -0.44209         5.30103
     2017.96851         1.06659         5.27394
     2017.97125         0.65426         5.13171
     2017.97399         1.00794         5.12107
     2017.97672        -6.44439         5.10462
     2017.97946         0.70429         5.15397
     2017.98494        -5.95536         5.11333
     2017.98767        -4.07169         5.12688
     2017.99041        -5.57501         5.19460
     2017.99315        -4.45733         5.11430
     2017.99589        -4.34966         5.18977
     2017.99863        -5.30098         5.13075
     2018.00136        -4.97031         5.14526
     2018.00410       -11.00463         5.17235
     2018.00684        -7.48996         5.16364
     2018.00958        -1.88328         5.09398
     2018.01232       -13.51461         5.15397
     2018.01505        -8.68293         5.15300
     2018.01779        -7.35425         5.16945
     2018.02053         0.41442         5.33876
     2018.02327        -0.30590         5.14332
     2018.02600        -3.76823         5.22460
     2018.02874        -9.40355         5.25556
     2018.03148        -4.91788         5.18106
     2018.03422        -7.44720         5.15784
     2018.03696        -3.95353         5.13655
     2018.03969        -4.41785         5.15397
     2018.04243        -9.01117         5.21105
     2018.04517        -1.61650         5.17525
     2018.04791        -9.14182         5.24104
     2018.05065        -2.97315         5.13365
     2018.05338        -4.10747         5.21879
     2018.05612        -5.94180         5.18009
     2018.05886       -10.68712         5.16074
     2018.06160        -6.76145         5.12591
     2018.06433        -5.48377         5.26039
     2018.06707        -2.39809         5.24878
     2018.06981       -10.84542         5.27781
     2018.07255        -9.30274         5.25265
     2018.07529       -15.24807         5.26039
     2018.07802       -10.68439         5.37263
     2018.08076       -18.14372         5.40165
     2018.08350        -8.74804         5.26136
     2018.08624        -8.09937         5.25265
     2018.08898        -6.11469         5.32135
     2018.09171        -8.81201         5.31941
     2018.09445        -9.79834         5.33683
     2018.09719         0.70834         5.42197
     2018.09993        -8.79299         5.26717
     2018.10266        -8.64231         5.28361
     2018.10540        -5.43564         5.39875
     2018.10814        -5.93796         5.22073
     2018.11088       -10.06628         5.21008
     2018.11362        -2.64261         5.24588
     2018.11635        -6.66993         5.22847
     2018.11909        -4.82626         5.33102
     2018.12183        -5.70058         5.51485
     2018.12457        -8.66991         5.25652
     2018.12731       -11.52023         5.27200
     2018.13004        -8.27056         5.35037
     2018.13278        -0.11388         5.29232
     2018.13552         1.19880         5.22653
     2018.13826        -2.03753         5.17041
     2018.14099        -9.26685         5.24008
     2018.14373        -5.82718         5.27297
     2018.14647        -0.46950         5.51195
     2018.14921        -4.36283         5.36005
     2018.15195        -8.66315         5.25459
     2018.15468        -6.02848         5.21395
     2018.15742        -0.63880         5.24588
     2018.16016        -8.84212         5.21105
     2018.16290        -6.02045         5.39778
     2018.16564        -8.59977         5.32619
     2018.16837       -11.13610         5.21395
     2018.17111        -4.37242         5.20718
     2018.17385       -11.56875         5.28168
     2018.17659        -5.50007         5.26426
     2018.17932         1.29660         5.28458
     2018.18206        -3.16572         5.33683
     2018.18480        -7.72104         5.31651
     2018.18754        -2.81737         5.27200
     2018.19028        -2.89069         5.20621
     2018.19301        -1.90902         5.26717
     2018.19575         3.11666         5.25362
     2018.19849        -7.19667         5.26136
     2018.20123         7.05901         5.31264
     2018.20397         6.35368         5.21008
     2018.20670         2.89736         5.17912
     2018.20944         0.97204         5.19847
     2018.21218        -3.45429         5.24298
     2018.21492       -16.46061         5.19267
     2018.21765         1.10506         5.16848
     2018.22039        -8.95126         5.13365
     2018.22313        -9.87059         5.19847
     2018.22587       -18.12191         5.16461
     2018.22861        -7.21924         5.17041
     2018.23134        -8.50056         5.09592
     2018.23408       -10.28788         5.14042
     2018.23682        -4.78621         5.15977
     2018.23956        -5.72353         5.13075
     2018.24230        -7.44186         5.22073
     2018.24503        -2.77718         5.13849
     2018.24777        -5.16551         5.09205
     2018.25051        -3.27883         5.22847
     2018.25325        -5.46616         5.13849
     2018.25598        -6.48248         5.12301
     2018.25872        -9.35880         5.31457
     2018.26146        -4.22313         5.26523
     2018.26420        -5.63545         5.24782
     2018.26694       -13.86078         5.13655
     2018.26967        -7.03410         5.11623
     2018.27241        -1.25943         5.18783
     2018.27515         8.59025         5.13365
     2018.27789        -8.65008         5.27781
     2018.28062        -3.69640         5.32619
     2018.28336       -16.11572         5.22847
     2018.28610       -10.52505         5.10559
     2018.28884        -7.22937         5.17719
     2018.29158        -3.98470         5.25749
     2018.29431        -3.79202         5.23524
     2018.29705        -3.01735         5.11140
     2018.29979        -7.02467         5.12978
     2018.30253       -11.85200         5.18880
     2018.30527        -2.23432         5.06109
     2018.30800        -5.20964         5.09979
     2018.31074        -3.18197         5.12204
     2018.31348        -1.81829         5.05625
     2018.31622        -6.41762         5.07366
     2018.31895         2.43406         5.26813
     2018.32169        -7.02027         5.09011
     2018.32443        -5.04559         5.20525
     2018.32717        -7.23492         5.13268
     2018.32991        -1.67724         5.22847
     2018.33264         0.34244         5.05238
     2018.33538        -3.31889         5.34263
     2018.33812        -1.98421         5.33296
     2018.34086        -3.07654         5.16171
     2018.34360        -1.12886         5.13365
     2018.34633        -3.72819         5.06302
     2018.34907        -5.76951         5.09011
     2018.35181         3.99116         5.18202
     2018.35455        -0.87816         5.10269
     2018.35728         3.45252         5.09785
     2018.36002         5.81119         5.13849
     2018.36276         1.37787         5.15203
     2018.36550        -1.61446         5.18009
     2018.36824         0.61722         5.13462
     2018.37097         2.21989         5.27200
     2018.37371         3.92857         5.08914
     2018.37645        -2.08976         5.19751
     2018.37919        -0.10008         5.13171
     2018.38193         3.65060         5.14332
     2018.38466         5.02027         5.10269
     2018.38740         3.12595         5.06496
     2018.39014         5.62062         5.10366
     2018.39288        -2.76670         5.09882
     2018.39561         0.25497         5.12010
     2018.39835         6.23565         5.21589
     2018.40109         4.91532         5.15397
     2018.40383         1.51800         5.12010
     2018.40657        -0.75732         5.10366
     2018.40930        12.30835         5.17622
     2018.41204         7.50803         5.15106
     2018.41478         1.45870         5.14042
     2018.42299        -1.48127         5.16751
     2018.42573         2.93440         5.13365
     2018.42847         4.82208         5.13171
     2018.43121         1.39676         5.13558
     2018.43394        -1.29657         5.16171
     2018.43668        -0.90689         5.22460
     2018.43942        -1.46622         5.06786
     2018.44216        -3.81654         5.09785
     2018.44490         3.63513         5.17622
     2018.44763         9.71081         5.23814
     2018.45037         1.69148         5.08237
     2018.45311         4.10816         5.07560
     2018.45585         1.40884         5.08914
     2018.45859         4.86851         5.19847
     2018.46132         0.38419         5.20912
     2018.46406         6.55686         5.16945
     2018.46680         9.51354         5.19944
     2018.46954         3.79621         5.13462
     2018.47227         3.98489         5.21589
     2018.47501        11.02256         5.17719
     2018.47775         5.90324         5.12397
     2018.48049        -5.46008         5.21782
     2018.48323        -0.29141         5.14429
     2018.48596         0.19127         5.09398
     2018.48870         2.05194         5.07753
     2018.49144         5.66162         5.09205
     2018.49418         3.57029         5.23234
     2018.49692         5.27397         5.29329
     2018.49965         5.78764         5.17332
     2018.50239         3.12032         5.14623
     2018.50513         6.81000         5.19460
     2018.50787         8.60967         5.15106
     2018.51060        -2.44265         5.15977
     2018.51334         3.41902         5.15784
     2018.51608         3.01670         5.15300
     2018.51882         1.70037         5.14236
     2018.52156         4.19405         5.15300
     2018.52429         0.82672         5.11140
     2018.52703         3.51140         5.10462
     2018.52977         1.88008         5.16848
     2018.53251         9.02575         5.13945
     2018.53525         8.26243         5.08527
     2018.53798         5.10210         5.08527
     2018.54072         6.89278         5.06979
     2018.54346         3.27245         5.15977
     2018.54620         3.48413         5.09205
     2018.54893         1.47280         5.11623
     2018.55167         5.47948         5.19170
     2018.55441         3.59416         5.09495
     2018.55715         5.79783         5.32038
     2018.55989         1.36351         5.28458
     2018.56262         3.42418         5.08818
     2018.56536         4.72186         5.12107
     2018.56810         7.04753         5.10172
     2018.57084         3.20921         5.12591
     2018.57357         2.70288         5.30296
     2018.57631         3.64556         5.45003
     2018.57905         5.48824         5.35908
     2018.58179        11.16791         5.19751
     2018.58453         7.55559         5.20234
     2018.58726         3.86226         5.14139
     2018.59000         3.21994         5.29813
     2018.59274         5.53361         5.39488
     2018.59548         9.43129         5.42971
     2018.59822        11.50396         5.35231
     2018.60095         7.58664         5.22556
     2018.60369         2.80832         5.13849
     2018.60643         5.25599         5.12107
     2018.60917        15.34867         5.24201
     2018.61190         7.75734         5.09398
     2018.61464        13.34302         5.28942
     2018.61738         7.36369         5.17622
     2018.62012         7.38937         5.09979
     2018.62286         5.82404         5.18880
     2018.62559         8.37372         5.24008
     2018.62833         6.52640         5.10075
     2018.63107         7.46807         5.11914
     2018.63381         5.25175         5.28071
     2018.63655         6.52442         5.23137
     2018.63928        12.16410         5.30103
     2018.64202        11.08877         5.44229
     2018.64476         7.57745         5.11720
     2018.64750         6.62312         5.15010
     2018.65023         5.96380         5.21879
     2018.65297         8.31748         5.09398
     2018.65571        12.57015         5.08818
     2018.65845        10.46583         5.17912
     2018.66119         1.82150         5.09301
     2018.66392         5.33118         5.15106
     2018.66666         8.66785         5.10172
     2018.66940         6.61553         5.09011
     2018.67214         9.37520         5.21782
     2018.67488         5.00488         5.14816
     2018.67761         5.73856         5.14816
     2018.68035         4.49023         5.20331
     2018.68309         1.19891         5.23814
     2018.68583        10.65858         5.18880
     2018.68856         8.65726         5.30296
     2018.69130         6.24593         5.44422
     2018.69404         4.56861         5.29813
     2018.69678         7.16028         5.33489
     2018.69952         4.21196         5.12881
     2018.70225         1.75964         5.28555
     2018.70499         1.61031         5.11720
     2018.70773        -0.29801         5.21008
     2018.71047        -1.67734         5.10462
     2018.71321         2.43834         5.12881
     2018.71594         5.56201         5.12784
     2018.71868        -2.32531         5.15880
     2018.72142        -0.34863         5.22266
     2018.72416         5.90704         5.22363
     2018.72689         4.97572         5.16267
     2018.72963         2.63839         5.05335
     2018.73237         0.97307         5.12301
     2018.73511         3.12674         5.13558
     2018.73785         7.82742         5.11914
     2018.74058         3.35809         5.11527
     2018.74332         8.07377         5.17428
     2018.74606         1.26245         5.08140
     2018.74880         5.41912         5.30587
     2018.75154        -0.60620         5.24008
     2018.75427         3.92947         5.05044
     2018.75701        11.74915         5.24878
     2018.75975         2.08682         5.17138
     2018.76249         2.84650         5.07366
     2018.76522        -0.78483         5.24298
     2018.76796       -10.64515         5.08527
     2018.77070         5.98853         5.21492
     2018.77344         6.92220         5.09495
     2018.77618         2.50188         5.08818
     2018.77891         4.59055         5.17138
     2018.78165         6.95523         5.19170
     2018.78439         7.64790         5.09882
     2018.78713         8.04858         5.09011
     2018.78987        -2.04775         5.15106
     2018.79260        -3.39707         5.05238
     2018.79534        10.53361         5.10269
     2018.79808         0.47428         5.04367
     2018.80082         8.09396         5.12591
     2018.80355         6.28363         5.06786
     2018.80629         1.90331         5.26717
     2018.80903         2.93998         5.14526
     2018.81177         1.71866         5.39875
     2018.81451         3.55533         5.21395
     2018.81724         4.35601         5.56516
     2018.81998         5.64269         5.52549
     2018.82271        -1.81064         5.40359
     2018.82545         0.76604         5.28942
     2018.82820         2.43471         5.50614
     2018.83094         3.26139         5.29135
     2018.83368         0.99206         5.32232
     2018.83641         9.50374         5.63192
     2018.83915        -2.04259         5.15687
     2018.84188        -6.85991         5.45970
     2018.84462         4.92877         5.25846
     2018.84735        -3.47755         5.43261
     2018.85010         0.14212         5.35134
     2018.85284        -2.86721         5.26039
     2018.85557        -7.57253         5.60096
     2018.85830        -4.86385         5.54484
     2018.86104        -0.12618         5.58838
     2018.86378         1.22750         5.48486
     2018.86653         3.50517         5.38520
     2018.86925         5.19085         5.72190
     2018.87200         5.27252         5.36005
     2018.87474         5.95519         5.30877
     2018.87748         4.34087         5.48486
     2018.88021         2.12255         5.33199
     2018.88295         5.52922         5.19073
     2018.88569         4.10190         5.18493
     2018.88843        10.04157         5.24395
     2018.89117         4.34025         5.27297
     2018.89390         0.05893         5.26717
     2018.89664         0.46660         5.34941
     2018.89938         0.63328         5.21395
     2018.90212        -0.73805         5.20525
     2018.90485         5.27063         5.30103
     2018.90759         2.85130         5.31554
     2018.91033         7.39698         5.18686
     2018.91307         8.28965         5.48583
     2018.91581         3.35933         5.11914
     2018.91854         8.99401         5.17138
     2018.92128         4.14568         5.18299
     2018.92402         3.85736         5.18299
     2018.92676         7.09003         5.20621
     2018.92950         8.02071         5.18493
     2018.93223         1.92538         5.29426
     2018.93497         1.88106         5.30103
     2018.93771         2.92973         5.21686
     2018.94045         2.23541         5.20621
     2018.94318         5.81809         5.14139
     2018.94592         4.16676         5.16364
     2018.94866         2.28144         5.12204
     2018.95140        14.65211         5.35521
     2018.95414         9.09879         5.56710
     2018.95687         3.76246         5.23330
     2018.95961         4.90314         5.17041
     2018.96235         0.28781         5.11236
     2018.96509         2.26449         5.25265
     2018.96783        -1.98683         5.26426
     2018.97056         1.69884         5.18299
     2018.97330         2.28252         5.19460
     2018.97604        -6.05581         5.15203
     2018.97878        -0.55613         5.09108
     2018.98151        -1.78146         5.15106
     2018.98425        -3.87178         5.35908
     2018.98699        -3.40911         5.22556
     2018.98973        -7.28543         5.16654
     2018.99247        -1.88975         5.18590
     2018.99520       -10.44808         5.47905
     2018.99794        -2.81940         5.22460
     2019.00068        -6.38673         5.21782
     2019.00342        -5.26905         5.24685
     2019.00616         2.00862         5.23621
     2019.00889        -2.27370         5.28361
     2019.01163         1.52497         5.26233
     2019.01437         0.72365         5.20912
     2019.01711        -4.12367         5.13171
     2019.01984        -6.33300         5.15784
     2019.02258        -6.60532         5.13849
     2019.02532       -10.14965         5.19654
     2019.02806        -3.43497         5.22750
     2019.03080        -3.54530         5.21686
     2019.03353        -3.29462         5.09979
     2019.03627        -5.94095         5.04464
     2019.03901        -0.78227         5.10559
     2019.04175        -0.47859         5.09205
     2019.04449         3.99408         5.14236
     2019.04722        -6.82524         5.24298
     2019.04996       -10.60957         5.28071
     2019.05270        -5.29989         5.30490
     2019.05544        -2.01822         5.23911
     2019.05817        -7.04954         5.36779
     2019.06091        -3.39087         5.28555
     2019.06365        -1.85219         5.14623
     2019.06639         2.48449         5.22943
     2019.06913        -4.49984         5.25169
     2019.07186        -0.49316         5.25072
     2019.07460        -2.61149         5.09592
     2019.07734         0.94119         5.06109
     2019.08008         3.23586         5.11430
     2019.08282         1.16254         5.21879
     2019.08555         1.56521         5.22363
     2019.08829         0.52989         5.08334
     2019.09103         6.35057         5.09979
     2019.09377         1.87824         5.05238
     2019.09650         6.78692         5.07657
     2019.09924         2.75159         5.12107
     2019.10198        -1.54273         5.10366
     2019.10472         0.05994         5.12010
     2019.10746        14.73862         5.15300
     2019.11019         0.12129         5.15106
     2019.11567        -0.70435         5.32522
     2019.11841        10.43032         5.10656
     2019.12115        15.10000         5.28845
     2019.12388         6.14967         5.19170
     2019.12662         1.27035         5.28942
     2019.12936         2.18702         5.11140
     2019.13210         2.96670         5.12107
     2019.13483        -3.73763         5.15010
     2019.13757        -4.61495         5.14236
     2019.14031         4.49573         5.13462
     2019.14305         1.91140         5.34360
     2019.14579        -5.84292         5.13752
     2019.14852         1.37475         5.13268
     2019.15126         3.66443         5.15590
     2019.15400        -1.67790         5.08914
     2019.15674         4.09478         5.09688
     2019.15948        -2.12055         5.11140
     2019.16221        -8.51887         5.18009
     2019.16495        -3.67319         5.09108
     2019.16769        -7.28752         5.04077
     2019.17043        -3.71584         5.15203
     2019.17316        -2.35117         5.09011
     2019.17590        -1.38749         5.09301
     2019.17864        -2.95982         5.24008
     2019.18138         1.00486         5.10849
     2019.18412        -8.95347         5.07753
     2019.18685        -5.52179         5.08818
     2019.18959        -1.88511         5.14429
     2019.19233        -5.73344         5.15203
     2019.19507        -5.50776         5.18009
     2019.19780        -6.21309         5.09301
     2019.20054        -2.75341         5.32522
     2019.20328        -7.69374         5.80898
     2019.20602        -4.51806         5.63966
     2019.20876        -2.97239         5.56419
     2019.21149        -6.18371         5.43938
     2019.21423        -0.31203         5.46744
     2019.21697        -0.38336         5.78189
     2019.21971        -3.92568         5.57000
     2019.22245        -2.85501         5.45390
     2019.22518        -3.28733         5.07947
     2019.22792         2.29534         5.08140
     2019.23062        -8.21696         6.04892
     2019.23340        -1.08431         5.06205
     2019.23613        -8.88463         5.80994
     2019.23887        -8.88995         5.87574
     2019.24161        -5.71528         6.29370
     2019.24435        -4.01260         6.08762
     2019.24711        -4.29494         5.82252
     2019.24986         5.09573         5.20621
     2019.25256         1.61242         5.23330
     2019.25530        -2.76790         5.66675
     2019.25804        -8.56623         5.16848
     2019.26078        -3.81255         5.28555
     2019.26351        -4.72087         5.39488
     2019.26625        -5.20720         5.26717
     2019.26899        -6.77852         5.20331
     2019.27173       -10.92185         5.28555
     2019.27446       -10.71517         5.07366
     2019.27720        -6.12650         5.44422
     2019.27994        -3.87982         5.16848
     2019.28268        -5.16015         5.25169
     2019.28542         0.63953         5.64353
     2019.28815        -2.46279         5.27974
     2019.29087        -4.39811         5.74028
     2019.29363         1.79656         5.53323
     2019.29637        -2.23677         5.20525
     2019.29903         0.87495         5.29329
     2019.30183        -3.33141         5.62708
     2019.30458        -7.90974         5.20331
     2019.30732        -4.93807         5.14042
     2019.31006         0.97361         5.72674
     2019.31279        -4.99571         5.79640
     2019.31553         9.05996         5.71222
     2019.31827        -2.45136         5.13171
     2019.32101        -4.26569         5.60677
     2019.32375       -12.56201         5.66965
     2019.32648        -4.14334         5.75673
     2019.32922        -2.71966         5.80317
     2019.33196        -3.49399         5.50034
     2019.33470        -4.83831         5.56516
     2019.33744        -2.20563         5.86896
     2019.34017        -3.51096         5.71706
     2019.34291         2.14072         5.60290
     2019.34565        -3.95661         5.26910
     2019.34839        -9.76493         5.57484
     2019.35112        -2.95926         5.87477
     2019.35386        -6.21558         5.22266
     2019.35660         0.77810         5.20718
     2019.35934         0.88577         5.23717
     2019.36208         1.35845         5.25652
     2019.36481        -2.32888         5.22556
     2019.36755        -4.81820         5.51969
     2019.37029         1.29947         5.13752
     2019.37301         3.02016         5.89315
     2019.37579         0.50081         5.90379
     2019.37852        -4.03751         5.66869
     2019.38133         3.67713         5.29135
     2019.38392         3.28588         5.42294
     2019.38672         2.48453         5.39391
     2019.38945        -4.22380         5.39585
     2019.39219         0.75288         5.75673
     2019.39493        -3.23545         5.09011
     2019.39767         3.56923         5.31264
     2019.40041         4.60090         5.32812
     2019.40314         4.91658         5.32328
     2019.40591         5.99024         5.30877
     2019.40862        -2.39107         5.15784
     2019.41136         0.82761         5.28942
     2019.41410         2.90328         5.26039
     2019.41683         1.60596         5.39778
     2019.41957         2.11563         5.23330
     2019.42231        -1.34469         5.26910
     2019.42505        -3.44602         5.88251
     2019.42778         4.58266         6.66813
     2019.43057         2.48631         6.37594
     2019.43326        -5.01099         5.31167
     2019.43600        -3.20831         5.43455
     2019.43874        -6.86464         5.55936
     2019.44147        -5.58996         5.90863
     2019.44421        -0.04329         5.76544
     2019.44695         0.80539         5.68610
     2019.44969        -2.53294         6.46786
     2019.45243         0.00074         5.80124
     2019.45516        -4.56658         5.53807
     2019.45790        -5.39591         5.78672
     2019.46064        -1.82923         5.89992
     2019.46334        -3.33554         7.07546
     2019.46615         2.15810         5.94540
     2019.46885         1.44979         6.23081
     2019.47159        -1.25353         5.69384
     2019.47433        10.45814         6.24049
     2019.47707         2.58482         5.79156
     2019.47980         3.69550         5.59032
     2019.48254         4.43217         5.91734
     2019.48525        -6.68214         6.09536
     2019.48802        -5.59948         5.40842
     2019.49076        -5.08980         5.69674
     2019.49349        -2.17713         5.53420
     2019.49623         3.47755         5.77802
     2019.49896         0.24623         6.07504
     2019.50183        -2.56516         5.52356
     2019.50444        -0.02342         6.20276
     2019.50718        -2.66575         5.51001
     2019.50992        -3.34807         5.67159
     2019.51266        -2.66540         5.50421
     2019.51540         0.59828         5.35521
     2019.51813        -4.18605         5.38907
     2019.52087        -6.95237         6.11471
     2019.52361        -0.93870         6.25113
     2019.52635        -2.39002         6.12826
     2019.52908         1.55066         5.67062
     2019.53182        -0.44767         5.39004
     2019.53456        -1.70399         6.64007
     2019.53730         0.83568         5.90766
     2019.54004         1.77636         5.75093
     2019.54277         0.42603         5.77995
     2019.54551         0.49271         5.71803
     2019.54825         2.75038         5.33586
     2019.55099        -3.72294         5.67739
     2019.55373        -0.59926         5.63386
     2019.55646         1.74841         5.85929
     2019.55920        -1.84491         5.79350
     2019.56194         0.14776         5.39101
     2019.56468        -1.13156         5.92605
     2019.56741        -2.59789         5.75867
     2019.57015        -0.13121         5.44132
     2019.57289         2.31646         5.47518
     2019.57563         0.16214         5.31554
     2019.57837         0.86182         5.44229
     2019.58110         7.95049         5.57387
     2019.58384         5.09517         7.14802
     2019.58658         2.18784         5.32812
     2019.58932         5.00252         5.61838
     2019.59206         7.64419         5.56032
     2019.59479         3.09587         5.31264
     2019.59753         1.43754         5.50711
     2019.60027         1.25222         5.60193
     2019.60301        -4.97010         5.71222
     2019.60574         4.61057         5.77415
     2019.60848         4.03425         5.70739
     2019.61122        -7.61808         5.59128
     2019.61396         6.36160         5.50808
     2019.61670         4.95027         5.65611
     2019.61943         4.53995         5.57000
     2019.62217         6.68062         5.46261
     2019.62491         4.00930         5.46648
     2019.62765         8.15198         5.33876
     2019.63039        11.51965         5.37650
     2019.63312        -1.31767         5.39391
     2019.63586         7.38200         5.97636
     2019.63860         4.28968         5.68223
     2019.64134         2.86235         5.46454
     2019.64407         7.48303         5.70061
     2019.64681        -2.23730         5.34747
     2019.64955        -0.61862         5.20912
     2019.65229         5.47406         5.28168
     2019.65503         3.39673         5.40746
     2019.65776        -5.28959         6.09633
     2019.66050         3.85108         6.11858
     2019.66324         5.05976         5.63869
     2019.66598         0.40543         5.65611
     2019.66872         3.03211         5.38037
     2019.67145         1.64578         5.37359
     2019.67419        -1.99354         5.49066
     2019.67693         1.37514         5.65321
     2019.67967         3.62381         5.49647
     2019.68240         4.50149         5.56710
     2019.68514         0.91316         5.67449
     2019.68788         2.35984         5.36779
     2019.69062         0.73551         5.33973
     2019.69336        -5.95881         5.29522
     2019.69609        -1.25614         5.34650
     2019.69883         2.26754         5.69191
     2019.70157         4.07522         5.35811
     2019.70448        -5.19019         5.63869
     2019.70705        -4.62743         5.61838
     2019.70978        -5.65776         6.06247
     2019.71251        -4.28408         5.31167
     2019.71534        -1.56145         5.43551
     2019.71800         1.00627         5.97926
     2019.72073         0.69094         5.75867
     2019.72343        -0.15336         7.04256
     2019.72632         0.47424         6.35949
     2019.72902        -1.49706         5.36876
     2019.73169         3.46265         5.48002
     2019.73442        -0.92268         6.01699
     2019.73716         5.57100         5.52743
     2019.73990         5.16867         5.38907
     2019.74264        -2.91265         5.51485
     2019.74538         0.05702         5.11043
     2019.74811         3.72370         5.31457
     2019.75084         0.57938         6.05086
     2019.75359        -0.18395         5.56613
     2019.75633        -2.67827         5.41229
     2019.75906        -1.57160         5.38714
     2019.76180        -5.03092         5.32522
     2019.76454         3.79675         5.84187
     2019.76728        -4.96257         5.92992
     2019.77002        -0.67290         5.48389
     2019.77275         1.64578         5.48099
     2019.77549         1.86946         5.21589
     2019.77824         3.04412         5.33973
     2019.78097         3.74080         5.49260
     2019.78371         2.48548         5.27974
     2019.78644         7.93816         5.42003
     2019.78918         5.80383         5.51872
     2019.79192         5.99651         5.33006
     2019.79466         6.69418         5.52840
     2019.79739         1.39686         5.36198
     2019.80013         2.44354         5.28845
     2019.80287        -5.47179         5.25846
     2019.80561         0.89189         5.46357
     2019.80835         0.73856         5.24491
     2019.81108         1.37124         5.38520
     2019.81382        -0.63409         5.43164
     2019.81656         2.25959         5.20718
     2019.81930         0.45726         5.24395
     2019.82203        -1.93706         5.23427
     2019.82477        -2.73638         5.45099
     2019.82751        -2.76771         5.30683
     2019.83025        -0.42103         5.38714
     2019.83299         1.58964         5.35811
     2019.83572         1.70532         5.27104
     2019.83846         8.65499         5.26136
     2019.84120         2.69267         5.24201
     2019.84394        -1.30166         5.40455
     2019.84668        -3.25398         5.26910
     2019.84941         3.42870         5.26330
     2019.85215         3.01637         5.29135
     2019.85489         5.66505         5.37166
     2019.85763         5.00472         5.23911
     2019.86036         3.61940         5.32232
     2019.86310         0.75607         5.27684
     2019.86584         6.92975         5.36682
     2019.86858        10.24842         5.29039
     2019.87132         1.46610         5.35715
     2019.87405         6.07878         5.20428
     2019.87679         5.54945         5.59903
     2019.87953        10.54913         5.34167
     2019.88227        14.02080         5.36198
     2019.88501        11.66748         5.26136
     2019.88774         5.79015         5.41616
     2019.89022        10.53796         5.87090
