# ================= DQRFIT RESULTS ================
# INPUT FILE: series/DRYV.rad
# OUTPUT: LDETRENDED
# FILTER FUNCTION: f(t)
# f(t)=+line(t)+jumps(t)
# line(t)=+P 1+P 2*t
# jumps(t)=+P 3*heav(t-2014.0438  )
# heav(t)=(t<0?0:1)
# TOTAL OBSERVATIONS MTOT=  360
# INITIAL TIME INTERVAL= 2017.2154 - 2006.4367 = 10.7787
# TOTAL OBSERVATIONS AFTER PREFILTER M=  359
# TIME-SPAN=    0.0000 -    0.0000 =  0.0000
# OBSERVATIONS: USED M=   359 REJECTED MTOT-M=     1 %USED=   99.7222
# N=  3 PARAMETERS
# MAXSIG= 175.00000
# MAXRES=  15.31967
# SCALE FACTOR FOR LENGTHS: SCL=  10.00000
# SCALE FACTOR FOR SIGMAS: SCLSIG=   1.00000
# CHI^2=    442.983 DOF=   356 CHI^2/DOF=   1.24433
# RMS=      6.307 SDEV=      6.316 MEAN=    0.00519
#  P #       PARAMETER +-    SIGMA %error PARAMETER NAME
# P 1 =      6763.14362 +-  478.614   7.08 YZERO                              
# P 2 =        -3.36034 +-    0.238   7.09 SLOPE                              
# P 3 =         8.11332 +-    2.032  25.05 OFFSET 2014.0438                   
#       T            LDETRENDED       SIG_OBS
     2006.43669        -3.41692         6.64279
     2006.43943         1.97828         6.66175
     2006.44217         2.26848         6.66398
     2006.44491        -2.01132         6.68629
     2006.44764        -0.47612         6.53459
     2006.45038         3.10508         6.64725
     2006.45312        -0.85272         6.60821
     2006.45586        -6.90452         6.60598
     2006.45859         3.80168         6.77107
     2006.46133        -2.47912         6.84916
     2006.46407        -6.34792         6.95067
     2006.46681        -0.32772         6.71530
     2006.46955         0.56248         6.77107
     2006.47228         1.37768         6.73203
     2006.47502         0.13888         6.74541
     2006.47776        -8.10092         6.79227
     2006.48050        -9.60372         6.85473
     2006.48324        -3.13352         6.84469
     2006.48597        -5.60532         6.88150
     2006.48871        -3.51512         6.75434
     2006.89391        -6.11150         6.68741
     2006.89665         0.96170         6.60598
     2006.89939         1.96390         6.42304
     2006.90213         5.03510         6.50558
     2006.90486        -9.48770         6.57251
     2006.90760         4.23950         6.47212
     2006.91034        -0.10330         6.47993
     2006.91308         5.24890         6.46766
     2006.91582        -1.05090         6.47100
     2006.91855        -3.27970         6.45762
     2006.92129         0.94450         6.43307
     2006.92403        -4.56430         6.45092
     2006.92677        -1.03710         6.48439
     2006.92951        -0.37590         6.60375
     2006.93224        -1.53970         6.50000
     2006.93498         2.37350         6.60375
     2006.93772         4.07170         6.57363
     2006.94046         0.58990         6.78780
     2006.94319         1.58710         6.55913
     2006.94593        -5.23370         6.67402
     2006.94867        -8.10950         6.65952
     2006.95141         1.78570         6.79227
     2006.95415        -4.55210         6.82461
     2006.95688         6.65510         6.57251
     2006.95962         4.03130         6.52231
     2006.96236         1.88750         6.56582
     2006.96510         5.07170         6.62606
     2006.96784         0.34590         6.54686
     2006.97057         0.85510         6.53012
     2006.97331        -7.77070         6.59705
     2006.97605         1.63950         6.66064
     2006.97879        -2.82430         6.63610
     2006.98152        -8.69510         6.69522
     2006.98426        -5.65890         6.84804
     2006.98700        -6.45470         6.91497
     2006.98974         1.43050         6.85696
     2006.99248        -9.13230         6.83689
     2006.99521        -6.60610         6.75545
     2006.99795         0.17910         6.69633
     2007.00343         1.57150         6.76215
     2007.00616        -3.33730         6.74207
     2007.00890        -5.97910         6.70414
     2007.01164        -0.60790         6.59036
     2007.01438        -5.87470         6.62829
     2007.01712        -8.79350         6.61155
     2007.01985        -8.42230         6.56024
     2007.02259        -5.46010         6.42304
     2007.02533         2.02810         6.55801
     2007.02807        -4.39970         6.53235
     2007.03081        -3.03750         6.36503
     2007.03354        -3.02230         6.30145
     2007.03628        -6.29310         6.28806
     2007.03902        -6.93290         6.23786
     2007.04176        -5.48670         6.36726
     2007.04449        -4.86950         6.25906
     2007.04723       -10.19730         6.39180
     2007.04997        -5.74010         6.58367
     2007.05271        -2.37890         6.56024
     2007.05545        -4.66970         6.26352
     2007.05818        -5.83750         6.24790
     2007.06092        -5.44930         6.23452
     2007.52909        -7.16608         6.35053
     2007.53183        -0.89588         6.45315
     2007.53457        -5.62268         6.42304
     2007.53731         1.30752         6.35834
     2007.54005        -3.13628         6.42192
     2007.54278        -4.25908         6.52120
     2007.54552         4.51512         6.66175
     2007.54826         1.15532         6.44423
     2007.55100        -1.94948         6.43977
     2007.55374        -2.49728         6.40407
     2007.55647        -1.22608         6.36168
     2007.55921        -2.73088         6.65394
     2007.56195         3.77132         6.63275
     2007.56469         1.22452         6.48439
     2007.56742        -4.19328         6.40184
     2007.57016        -1.71408         6.42638
     2007.57290         0.63812         6.43865
     2007.57564         0.45033         6.40853
     2007.57838        -0.30147         6.48885
     2007.58111         1.18173         6.45985
     2007.58385        -1.73607         6.33380
     2007.58659        -1.74187         6.33937
     2007.58933         1.66433         6.43196
     2007.59206         5.03953         6.42192
     2007.59480         1.04773         6.51339
     2007.59754         4.89693         6.46654
     2007.60028         2.03413         6.33603
     2007.60302         1.37233         6.36503
     2007.60575        -1.44747         6.43865
     2007.60849        -3.41627         6.39403
     2007.61123         9.41093         6.31706
     2007.61397        -1.05787         6.31706
     2007.61671        -0.68567         6.76661
     2007.61944         2.21053         6.83689
     2007.62218         5.10373         6.77665
     2007.62492         0.05493         6.60375
     2007.62766        -0.10087         6.73872
     2007.63039         2.46133         6.84246
     2007.63313         1.30053         6.67291
     2007.63587         1.44873         6.66621
     2007.63861        -1.63507         6.73091
     2007.64135        -1.28987         6.43754
     2007.64408         5.59233         6.72422
     2007.64682        -4.68447         6.72868
     2007.64956        -3.71027         6.81123
     2007.65230         2.48893         6.81123
     2007.65504         4.25713         6.74541
     2007.65777         2.27033         7.16484
     2008.17797        -2.46765         6.32376
     2008.18070        -7.32345         6.31483
     2008.18344        -2.93625         6.46766
     2008.18618        -3.61305         6.31818
     2009.51677         0.58020         6.41188
     2009.51951         8.89640         6.51562
     2009.52225        -5.75340         6.37395
     2009.52499         5.09280         6.42861
     2009.52773        -0.86800         6.70303
     2009.53046        -4.21680         6.40407
     2009.53320        -2.60860         6.38065
     2009.53594        -3.27840         6.30256
     2009.53868        -2.26420         6.40184
     2009.54141         2.27000         6.33603
     2009.54415        -2.56379         6.34830
     2009.54689        -4.47759         6.37061
     2009.54963         1.88561         6.32710
     2009.55237         2.24681         6.33268
     2009.55510         1.46401         6.34160
     2009.55749         1.41104         7.26970
     2011.15127        13.71667         6.06050
     2011.15401       -10.64013         6.23005
     2011.15675        11.65407         6.20217
     2011.15948         9.88227         6.10735
     2011.16222        13.34447         6.12074
     2011.16496         5.86967         6.18209
     2011.16770        -5.61913         6.11850
     2011.17044         0.45707         6.11850
     2011.17317        -9.07173         6.09843
     2011.17591        -0.82153         6.09173
     2011.17865        15.31967         6.15420
     2011.18139        11.12587         6.12297
     2011.18413         1.06407         6.12631
     2011.18686        10.43227         6.20551
     2011.18960         5.06147         6.20328
     2011.19234         2.26267         6.10289
     2011.19508         4.79987         6.23229
     2011.19781        -1.23493         6.31260
     2011.20055        -7.33373         6.21890
     2011.20329         8.55747         6.27467
     2011.20603         4.73967         6.20440
     2011.20877         2.29887         6.18097
     2011.21150        -0.60293         6.21890
     2011.21424        11.11527         6.17539
     2011.21698         7.76247         6.23675
     2011.21972         9.66267         6.22001
     2011.22246         3.51787         6.22671
     2011.22519        11.75107         6.14305
     2011.22793         0.17827         6.24567
     2011.23067         5.88647         6.16536
     2011.23341        11.89767         6.17763
     2011.23614         5.76187         6.18767
     2011.23888         6.43107         6.19547
     2011.24162         6.92327         6.13970
     2011.24436         6.17647         6.16870
     2014.05903        10.45475         6.62382
     2014.06428        11.72036         6.87258
     2014.06995        13.07142         6.57140
     2014.07240        13.82465         7.14588
     2014.07513        10.10383         7.95238
     2014.08093        17.50432         6.60040
     2014.08343        17.59272         6.49108
     2014.09172        16.60659         6.39626
     2014.09446        18.09779         8.75666
     2014.09703        17.78241         6.72422
     2014.10003        19.49949         6.35945
     2014.10267        12.14339         6.35945
     2014.10541        15.08159         6.24456
     2014.10815        12.00679         6.19659
     2014.11089         3.36899         6.32599
     2014.11363         7.91319         6.16982
     2014.11623        21.95394         6.56805
     2014.12755        17.06797         7.02764
     2014.12985        16.75172         6.68295
     2014.13578        10.06262         7.32770
     2014.13827        12.90699         6.21221
     2014.14100        15.74819         6.30702
     2014.14374        14.20439         6.27244
     2014.14648        13.60159         6.29475
     2014.14922        12.28879         6.25571
     2014.15196        13.65599         6.23898
     2014.15447        14.09044         6.90828
     2015.71253        11.03006         6.25794
     2015.71527        14.45226         6.25125
     2015.71801        16.69946         6.28583
     2015.72074        19.02066         6.23340
     2015.72348         5.63486         6.34049
     2015.72622         7.00206         6.23229
     2015.72896         7.22426         6.26463
     2015.73170        11.57146         6.31929
     2015.73443        16.50766         6.41523
     2015.73717         5.99386         6.37618
     2015.73991        19.11706         6.45985
     2015.74265        13.06626         6.45762
     2015.74538        17.88446         6.76215
     2015.74812         9.01166         6.60375
     2015.75086         7.62586         6.29587
     2015.75360        12.54806         6.32041
     2015.75634        17.16526         6.34049
     2015.75907        11.63046         6.25236
     2015.76181        12.92666         6.28025
     2015.76455         9.92686         6.28694
     2015.76729        12.86806         6.28583
     2015.77003         9.36526         6.23117
     2015.77276         8.28946         6.32376
     2015.77550         2.99966         6.27802
     2015.77824        17.59086         6.32710
     2015.78098        13.97706         6.28918
     2015.78371        14.43026         6.27802
     2015.78645        16.51846         6.29698
     2015.78919         6.32966         6.26017
     2015.79193        16.45286         6.40519
     2015.79467         2.18306         6.53235
     2015.79740        20.57826         6.35945
     2015.80014        14.92846         6.42750
     2015.80288        10.53366         6.19994
     2015.80562        13.71986         6.29029
     2015.80836        11.69906         6.28360
     2015.81109         8.95026         6.28471
     2015.81383        11.49046         6.31149
     2015.81657         8.43866         6.27467
     2015.81931        16.34086         6.34049
     2015.82204        15.46706         6.31149
     2015.82478        18.97026         6.26017
     2015.82752        16.62846         6.26575
     2015.83026        15.33266         6.33045
     2015.83300        17.35386         6.43419
     2015.83573         9.01906         6.32822
     2015.83847        13.00526         6.35722
     2015.84121        13.51946         6.32822
     2015.84395        12.77866         6.34384
     2015.84669        10.36986         6.38176
     2015.84942        12.54606         6.38734
     2015.85216        11.50726         6.35387
     2015.85764         1.96466         6.43642
     2015.86037        11.36286         6.40742
     2016.92266        12.43850         6.06608
     2016.92540        10.44370         6.09173
     2016.92814        12.60890         6.18990
     2016.93087        11.39010         6.12297
     2016.93361        11.93431         6.27802
     2016.93635         1.34151         6.17651
     2016.93909        -0.29029         6.59259
     2016.94183        -0.04209         6.18432
     2016.94456         7.65311         6.16536
     2016.94730        15.92331         6.21778
     2016.95004        12.05851         6.25013
     2016.95278         8.13571         6.34607
     2016.95551         8.26591         6.28360
     2016.95825         8.17811         6.29029
     2016.96099        16.28931         6.14974
     2016.96373         7.77751         6.11293
     2016.96647         7.63071         6.11850
     2016.96920        10.75491         6.20217
     2016.97194         9.44511         6.17539
     2016.97468        13.81031         6.12854
     2016.97742        14.97851         6.17205
     2016.98016        12.68071         6.09843
     2016.98563        12.18611         6.14862
     2016.98837        11.30831         6.12185
     2016.99111        12.37751         6.10958
     2016.99384        12.10571         6.09619
     2016.99658        12.39991         6.09173
     2016.99932        12.58811         6.15866
     2017.00206        13.83831         6.14974
     2017.00480         8.12151         6.13858
     2017.00753         2.55271         6.11627
     2017.01027         0.68791         6.16424
     2017.01301        16.61611         6.13078
     2017.01575        11.10131         6.10847
     2017.01849         6.04551         6.17316
     2017.02670        -1.25189         7.32882
     2017.03765         5.57091         6.10177
     2017.05408        15.56511         6.17428
     2017.05955         7.18551         6.21667
     2017.06229         9.80471         6.11850
     2017.06503         7.91691         6.11293
     2017.06777         4.69911         6.14416
     2017.07050         6.63231         6.12631
     2017.07324         2.35951         6.14193
     2017.07598        -0.98829         6.14639
     2017.07872        -0.77009         6.09396
     2017.08146         0.60611         6.12408
     2017.08419        -0.83269         6.14751
     2017.08693         5.59151         6.16982
     2017.08967         3.87471         6.21109
     2017.09241        -5.44309         6.24232
     2017.09515        -3.19589         6.20663
     2017.09788         7.34631         6.16870
     2017.10062         9.68351         6.30033
     2017.10336       -11.75029         6.39849
     2017.10610        -1.00709         6.23898
     2017.10883         4.88011         6.42527
     2017.11431        -1.61849         6.17093
     2017.11705        -2.05229         6.15866
     2017.11979        -2.62609         6.18209
     2017.12252        -0.92389         6.22336
     2017.12526         3.48531         6.15643
     2017.12800         2.71251         6.36726
     2017.13074         9.86971         6.20551
     2017.13347         5.91691         6.11850
     2017.13621         4.63011         6.31372
     2017.13895       -10.26269         6.22113
     2017.14169        -6.69849         6.19436
     2017.14443       -12.23729         6.21109
     2017.14716        -0.48009         6.17428
     2017.14990         2.44011         6.17093
     2017.15264         2.13131         6.17763
     2017.15538         5.04951         6.15197
     2017.15812         5.52971         6.29922
     2017.16085         7.28691         6.15755
     2017.16359        -1.70489         6.14974
     2017.16633        -0.89869         6.15532
     2017.16907        -0.94949         6.16201
     2017.17180         1.89071         6.19101
     2017.17728       -11.83789         6.31706
     2017.18002        -7.01168         6.21109
     2017.18276        -4.10548         6.15308
     2017.18549        -8.49328         6.14081
     2017.18823        -8.83308         6.16982
     2017.19097        -3.66788         6.15755
     2017.19371         4.13332         6.22113
     2017.19645         3.18852         6.14639
     2017.19918         4.01172         6.13858
     2017.20192        -0.11908         6.20886
     2017.20466        -4.21888         6.32153
     2017.20740        -1.17768         6.19101
     2017.21013         7.60352         6.22782
     2017.21287        10.57472         6.26798
     2017.21539        -2.38982         6.92612
