# ================= DQRFIT RESULTS ================
# INPUT FILE: series/EDNA.rad
# OUTPUT: LDETRENDED
# FILTER FUNCTION: f(t)
# f(t)=+line(t)+annual(t)
# line(t)=+P 1+P 2*t
# annual(t)=+P 3*sin(2*pi*t+P 4)
# heav(t)=(t<0?0:1)
# TOTAL OBSERVATIONS MTOT=  365
# INITIAL TIME INTERVAL= 2017.1006 - 2011.4935 =  5.6071
# TOTAL OBSERVATIONS AFTER PREFILTER M=  361
# TIME-SPAN= 2017.1006 - 2011.4935 =  5.6071
# OBSERVATIONS: USED M=   361 REJECTED MTOT-M=     4 %USED=   98.9041
# N=  4 PARAMETERS
# MAXSIG= 175.00000
# MAXRES=  10.66814
# SCALE FACTOR FOR LENGTHS: SCL=  10.00000
# SCALE FACTOR FOR SIGMAS: SCLSIG=   1.00000
# CHI^2=    160.739 DOF=   357 CHI^2/DOF=   0.45025
# RMS=      3.710 SDEV=      3.715 MEAN=    0.00095
#  P #       PARAMETER +-    SIGMA %error PARAMETER NAME
# P 1 =     -3762.35875 +-  347.933   9.25 YZERO                              
# P 2 =         1.86924 +-    0.173   9.24 SLOPE                              
# P 3 =         2.19410 +-    0.317  14.43 ANNUAL AMPLITUDE                   
# P 4 =        -3.04697 +-    0.202   6.62 ANNUAL PHASE                       
#       T            LDETRENDED       SIG_OBS
     2011.49350        -4.33651         3.74623
     2011.49624        -0.27263         3.76435
     2011.49898        -4.45275         3.79186
     2011.50172         0.89813         3.75831
     2011.50445         3.94101         3.76502
     2011.50719        -5.92010         3.78448
     2011.50993        -5.89522         3.84889
     2011.51267        -1.20234         3.82272
     2011.51541        -0.47846         3.85829
     2011.51814         4.34443         3.74556
     2011.52088         1.44231         3.73885
     2011.52362        -0.76481         3.73549
     2011.52636        -2.74293         3.73348
     2011.52909         2.10896         3.76032
     2011.53183         0.19784         3.77508
     2011.53457        -1.36928         3.74891
     2011.53731         3.76860         3.76837
     2011.54005        -1.07252         3.71134
     2011.54278        -1.76563         3.83346
     2011.54552        -1.92975         3.75025
     2011.54826        -3.27387         3.76636
     2011.55100         0.35501         3.73012
     2011.55374         1.82490         3.73683
     2011.55647        -2.08322         3.74153
     2011.55921        -1.51734         3.75495
     2011.56195         2.01154         3.76502
     2011.56469         4.70843         3.74354
     2011.56742         8.02131         3.73616
     2011.57016        -1.12181         3.76233
     2011.57290        -1.74293         3.75227
     2011.57564         0.95696         3.76367
     2011.57838         5.71684         3.81937
     2011.58111        -7.27828         3.80326
     2011.58385        -5.68340         3.81199
     2011.58659        -0.35652         3.93008
     2011.58933         0.99337         3.81870
     2011.59206        -1.83475         3.73952
     2011.59480         1.84013         3.73751
     2011.59754         0.30301         3.77441
     2011.60028         3.69190         3.74422
     2011.60302         2.57678         3.74690
     2011.60575         3.22566         3.73214
     2011.60849         6.50554         3.99920
     2011.61123         2.84143         3.94015
     2011.61397         2.79131         3.83279
     2011.61671         5.78219         3.84889
     2011.61944        -1.24693         3.94149
     2011.62218         3.00495         3.83816
     2011.62492        -1.33216         3.80461
     2011.62766        -1.41528         3.81132
     2011.63039         2.22460         3.75428
     2011.63313         7.13848         3.77173
     2011.63587         4.65937         3.79320
     2011.63849         6.58647         3.85627
     2012.49008        -1.92135         3.66705
     2012.49282        -1.31347         3.66235
     2012.49556        -1.01459         3.66034
     2012.49829        -2.68371         3.68114
     2012.50103         4.94718         3.71134
     2012.50377        -0.16394         3.70328
     2012.50651         0.79094         3.68852
     2012.50924         4.70682         3.72811
     2012.51198        -3.73829         3.74220
     2012.51472        -2.37341         3.77106
     2012.51746         1.39247         3.71066
     2012.52020        -2.50565         3.68986
     2012.52293        -2.86876         3.66369
     2012.52567         4.63812         3.71066
     2012.52841        -0.90400         3.73415
     2012.53115         1.93088         3.70261
     2012.53389         2.60576         3.73751
     2012.53662         0.37665         3.65967
     2012.53936         6.45553         3.72341
     2012.54210         5.93141         3.68450
     2012.54484         3.37829         3.67108
     2012.54757         5.80518         3.70395
     2012.55031         0.96506         3.71670
     2012.55305         0.49494         3.68181
     2012.55579        -1.51618         3.68181
     2012.55853        -1.89529         3.70194
     2012.56126         8.19059         3.79387
     2012.56400         0.06347         3.70194
     2012.56674        -1.73065         3.67644
     2012.56948        -1.14177         3.65631
     2012.57222         0.95612         3.69121
     2012.57495        -4.71800         3.66772
     2012.57769        -2.13912         3.69053
     2012.58043         6.09876         3.67175
     2012.58317        -0.92735         3.67443
     2012.58590        -0.49947         3.67376
     2012.58864         2.44341         3.66973
     2012.59138        -1.45371         3.67779
     2012.59412        -1.91982         3.73482
     2012.59686        -0.38494         3.69926
     2012.59959        -0.22306         3.66973
     2012.60215        -2.75683         4.04214
     2013.31144        -4.61266         3.75025
     2013.31417         0.19122         3.74690
     2013.31691         0.01911         3.71939
     2013.31965        -2.51201         3.74153
     2013.32239         0.38187         3.73952
     2013.32512        -0.14725         3.73281
     2013.32786         1.96664         3.76233
     2013.33060         1.34852         3.71402
     2013.33334        -4.49360         3.72945
     2013.33608        -2.57872         3.71737
     2013.33881         1.96916         3.70664
     2013.34155         4.61505         3.70597
     2013.34429         5.02893         3.69657
     2013.34703        -3.73419         3.72811
     2013.34977        -3.46331         3.76502
     2013.35250        -3.76642         3.73281
     2013.35524        -8.04054         3.79722
     2013.35798        -1.88766         3.71872
     2013.36072        -1.23778         3.73147
     2013.36345        -0.68489         3.75764
     2013.36619        -1.34701         3.74422
     2013.36893         2.02487         3.75227
     2013.37167         3.72975         3.70664
     2013.37441        -4.23937         3.72073
     2013.37714         1.52452         3.75831
     2013.37988        -0.92360         3.74422
     2013.38262        -8.10572         3.72408
     2013.38536        -3.76384         3.75696
     2013.38810         1.83905         3.75025
     2013.39083         2.48693         3.70463
     2013.39357        -5.05219         3.72274
     2013.39631         1.05769         3.70932
     2013.39905         1.60158         3.71066
     2013.40178        -2.31654         3.71536
     2013.40452        -3.86466         3.69993
     2013.40726        -0.66878         3.78917
     2013.41000         4.89510         3.71603
     2013.41274         0.50099         3.72408
     2013.41547        -3.91813         3.76837
     2013.41821         0.37975         3.72006
     2013.42095         4.05863         3.74690
     2013.42369        -3.17748         3.73616
     2013.42643        -2.18060         3.72610
     2013.42916         1.25128         3.74690
     2013.43190        -1.82284         3.73549
     2013.43464         0.21205         3.71335
     2013.43738         0.89793         3.72677
     2013.44011         4.85581         3.79991
     2013.44285        -3.54931         3.75160
     2013.44543         0.29588         4.09582
     2015.11568        -3.53721         3.79790
     2015.11842        -7.85633         3.77508
     2015.12115        -1.16145         3.80125
     2015.12389        -1.43457         3.80326
     2015.12663        -3.22268         3.80192
     2015.12937        -2.60580         3.77709
     2015.13211        -1.88292         3.76300
     2015.13484        -6.58304         3.82809
     2015.13758        -1.01316         3.85829
     2015.14032         3.30173         3.80393
     2015.14306         0.60261         3.80528
     2015.14580        -2.33351         3.78045
     2015.14853        -0.43163         3.79051
     2015.15127        -4.18274         3.75361
     2015.15401        -3.69386         3.77844
     2015.15675        -0.58298         3.78448
     2015.15948         2.44090         3.76569
     2015.16222         1.55879         3.72207
     2015.16496         0.29567         3.73147
     2015.16770        -1.59045         3.77106
     2015.17044        -1.81957         3.75361
     2015.17317        -2.69069         3.87171
     2015.17591        -5.21180         3.84218
     2015.17865        -0.57092         3.75294
     2015.18139         0.49096         3.74958
     2015.18413         1.54684         3.77038
     2015.18686        -0.69127         3.77911
     2015.18960        -0.43839         3.79655
     2015.19234        -2.53351         3.90190
     2015.19508        -2.57663         3.77240
     2015.19781        -1.28474         3.80259
     2015.20055         1.44214         3.82205
     2015.20329        -8.29098         3.78783
     2015.20603        -4.91810         3.82406
     2015.20877        -1.82022         3.75898
     2015.21150        -6.41033         3.76636
     2015.21424        -7.29545         3.76166
     2015.21698        -3.86757         3.79521
     2015.21972        -5.31269         3.73751
     2015.22246        -9.02780         3.79655
     2015.22519        -0.55592         3.75696
     2015.22793        -2.31704         3.75965
     2015.23067        -1.68016         3.74354
     2015.23341         0.04673         3.83077
     2015.23614        -0.29639         3.85426
     2015.23888        -1.69851         3.82943
     2015.24162         1.76737         3.85091
     2015.24436         4.48125         3.85023
     2015.24710        -4.01086         3.75696
     2015.24983        -1.30598         3.72408
     2015.25257         0.17390         3.73885
     2015.25531        -3.62622         3.78045
     2015.25805         2.68767         3.77911
     2015.26079         0.88455         3.73952
     2015.26352         2.42043         3.71402
     2015.26626        -0.36869         3.73683
     2015.26900        -3.19980         3.75428
     2015.27174         5.18608         3.83212
     2015.27447         1.27196         3.87171
     2015.27721         3.70884         3.80997
     2015.27995        -2.09328         3.78917
     2015.28269         4.49661         3.83010
     2015.28543        -2.26651         3.87439
     2015.28794        -3.68321         4.31860
     2016.61055         0.15153         3.68181
     2016.61328        -3.74059         3.67108
     2016.61602        -2.99271         3.66034
     2016.61876        -3.37982         3.66571
     2016.62150        -4.74294         3.71536
     2016.62423         0.91794         3.72476
     2016.62697         3.34182         3.68047
     2016.62971         0.48571         3.66906
     2016.63245        -2.86741         3.73482
     2016.63519         2.68247         3.71134
     2016.63792         5.03635         3.67779
     2016.64066         6.53123         3.66302
     2016.64340        -0.76288         3.65967
     2016.64614         2.60300         3.63149
     2016.64888        -2.35912         3.65900
     2016.65161         3.83676         3.76166
     2016.65435        -1.39935         3.68315
     2016.65709        -3.47947         3.68986
     2016.65983        -4.32659         3.65095
     2016.66256        -2.23471         3.66772
     2016.66530        -1.70882         3.68450
     2016.66804        -2.23094         3.67376
     2016.67078         4.21594         3.82943
     2016.67352         4.47982         3.68047
     2016.67625         7.97370         3.69456
     2016.67899         6.99159         3.64021
     2016.68173         8.22147         3.63551
     2016.68447         6.84635         3.79790
     2016.68721         1.23623         3.90324
     2016.68994         3.79212         3.72945
     2016.69268        -2.54400         3.65363
     2016.69542         0.45888         3.63887
     2016.69816         2.52876         3.66168
     2016.70089         8.05665         3.69255
     2016.70363        -3.18747         3.81601
     2016.70637         3.90741         3.91733
     2016.70911         0.53829         3.86433
     2016.71185         5.36817         3.64289
     2016.71458         9.42206         3.67913
     2016.71732         6.16494         3.67108
     2016.72006         0.68982         3.68382
     2016.72280         5.41770         3.67175
     2016.72554         2.60959         3.81064
     2016.72827         5.87947         3.73751
     2016.73101         0.44435         3.68919
     2016.73375        -0.71177         3.65296
     2016.73649         1.99812         3.65766
     2016.73922         1.95600         3.65296
     2016.74196        -1.22712         3.61807
     2016.74470        -3.63824         3.64088
     2016.74744         2.45864         3.69121
     2016.75018         1.28853         3.68114
     2016.75291         6.74441         3.67242
     2016.75565         9.90729         3.65900
     2016.75839         8.28217         3.63417
     2016.76113         5.65806         3.65296
     2016.76387         5.15694         3.66034
     2016.76660         1.68582         3.64289
     2016.76934         5.53870         3.67108
     2016.77208         1.98859         3.64491
     2016.77482         0.53947         3.63753
     2016.77755         1.83735         3.70463
     2016.78029         1.11623         3.68382
     2016.78303         0.14511         3.69389
     2016.78577        10.49500         3.73482
     2016.78851        10.22788         3.75428
     2016.79124        -1.13624         3.84084
     2016.79398         1.16064         3.71134
     2016.79672         0.91753         3.70060
     2016.79946        -2.95259         3.68114
     2016.80220         2.38729         3.65967
     2016.80493         5.21517         3.64021
     2016.80767         3.69706         3.66772
     2016.81041         3.00594         3.66973
     2016.81315        -6.69118         3.74958
     2016.81588         2.13970         3.68986
     2016.81862        -5.73742         3.64893
     2016.82136         2.58347         3.72006
     2016.82410        -4.36965         3.67913
     2016.82684        -4.26077         3.66906
     2016.82957         1.59211         3.69657
     2016.83231         5.58500         3.69724
     2016.83505        -0.07512         3.64088
     2016.83779        -2.25224         3.64692
     2016.84052        -1.94736         3.65833
     2016.84326        -1.10447         3.64021
     2016.84600         1.92241         3.65564
     2016.84874         4.17629         3.64222
     2016.85148         2.57117         3.64960
     2016.85421         0.65805         3.67711
     2016.85695         1.08594         3.68919
     2016.85969         0.59982         3.73214
     2016.86243         2.96070         3.66906
     2016.86517         9.51358         3.66235
     2016.86790         6.41147         3.66034
     2016.87064         3.05335         3.68785
     2016.87338         6.35623         3.65162
     2016.87612         9.00811         3.69255
     2016.87885         4.98400         3.64424
     2016.88159        -1.82012         3.64356
     2016.88433         3.77776         3.68114
     2016.88707         1.88564         3.69389
     2016.88981         3.30452         3.65900
     2016.89254         1.46641         3.64826
     2016.89528        -0.86871         3.68114
     2016.89802         1.84817         3.65698
     2016.90076         3.07605         3.69121
     2016.90350         8.03194         3.77508
     2016.90623        11.70882         3.74891
     2016.90897         6.04770         3.65766
     2016.91171         1.56958         3.62746
     2016.91445         4.22547         3.63820
     2016.91718         2.35435         3.75093
     2016.91992        -2.01977         3.74489
     2016.92266        -1.66589         3.64491
     2016.92540         0.79300         3.63216
     2016.92814        -5.12012         3.63417
     2016.93087        -2.28624         3.65631
     2016.93361         3.08564         3.79186
     2016.93635        -1.44048         3.68114
     2016.93909        -3.42859         3.83010
     2016.94183         4.52329         3.65766
     2016.94730         3.91805         3.88781
     2016.95004         4.71094         3.78246
     2016.95278         6.25582         3.84218
     2016.96099         2.87647         3.66973
     2016.96373        -2.45865         3.67175
     2016.96647        -0.93777         3.69590
     2016.96920         3.70011         3.66973
     2016.97194         0.32099         3.66235
     2016.97468         2.63988         3.64692
     2016.97742         6.71376         3.68248
     2016.98016         1.45064         3.67711
     2016.98289         4.86152         3.66437
     2016.99658        -2.29006         3.65497
     2016.99932        -3.71318         3.65430
     2017.00206        -1.16630         3.63283
     2017.00480         0.34758         3.65430
     2017.01575        -5.16889         3.87976
     2017.01849        -2.51601         3.69053
     2017.02122       -11.24912         3.67376
     2017.03765        -8.66483         3.73482
     2017.04039        -6.86795         3.67376
     2017.04313        -7.93507         3.65900
     2017.04860        -6.50130         4.44273
     2017.05403         1.47555         3.74489
     2017.08967       -14.01307         3.70060
     2017.09241       -13.26918         3.69121
     2017.09515        -8.68530         3.70463
     2017.09788        -8.89842         3.69322
     2017.10062        -2.93854         3.80595
