# ================= DQRFIT RESULTS ================
# INPUT FILE: series/GARC.rad
# OUTPUT: LDETRENDED
# FILTER FUNCTION: f(t)
# f(t)=+line(t)
# line(t)=+P 1+P 2*t
# heav(t)=(t<0?0:1)
# TOTAL OBSERVATIONS MTOT=  352
# INITIAL TIME INTERVAL= 2022.7160 - 2006.5161 = 16.1999
# TOTAL OBSERVATIONS AFTER PREFILTER M=  352
# TIME-SPAN=    0.0000 -    0.0000 =  0.0000
# OBSERVATIONS: USED M=   352 REJECTED MTOT-M=     0 %USED=  100.0000
# N=  2 PARAMETERS
# MAXSIG= 175.00000
# MAXRES=  17.89716
# SCALE FACTOR FOR LENGTHS: SCL=  10.00000
# SCALE FACTOR FOR SIGMAS: SCLSIG=   1.00000
# CHI^2=    419.039 DOF=   350 CHI^2/DOF=   1.19725
# RMS=      6.210 SDEV=      6.218 MEAN=    0.09133
#  P #       PARAMETER +-    SIGMA %error PARAMETER NAME
# P 1 =       936.48719 +-  161.736  17.27 YZERO                              
# P 2 =        -0.46372 +-    0.080  17.34 SLOPE                              
#       T            LDETRENDED       SIG_OBS
     2006.51609        -3.83758         6.72818
     2006.51883        -0.31231         6.90872
     2006.52157         0.77096         6.70849
     2006.52430        -3.04277         6.66581
     2006.52704         3.62750         6.77742
     2006.52978         2.67777         6.65815
     2006.53252        -3.35696         6.68660
     2006.53525        -0.86169         6.68113
     2006.53799         7.24558         6.68113
     2006.54073         0.52885         6.67785
     2006.54347         6.94812         6.32005
     2006.54621         0.35339         6.37804
     2006.54894        -0.97434         6.32114
     2006.55168         1.40693         6.34303
     2006.55442        -6.63680         6.37476
     2006.55716        -3.72153         6.54108
     2006.55990        -0.08327         6.28832
     2007.02807         8.13984         6.50716
     2007.03081         2.58811         6.22704
     2007.03354        -3.23262         6.13513
     2007.03628        -1.97535         6.12966
     2007.03902        -4.39408         6.14060
     2007.04176        -1.43781         6.20516
     2007.04449        -2.54754         6.18327
     2007.04723        -5.57528         6.29051
     2007.04997        -2.66601         6.39992
     2007.05271        -2.33374         6.39117
     2007.05545         0.15153         6.13622
     2007.05818        -2.13220         6.10887
     2007.06092        -2.02493         6.06948
     2007.06366        -0.20566         6.16358
     2007.06640        -0.96939         6.17124
     2007.06914         2.02288         6.07933
     2007.07187         6.76115         6.08480
     2007.07461         8.30642         6.06510
     2007.07735         4.06969         6.03228
     2007.08009         1.05596         6.04541
     2007.08282         5.22323         6.07495
     2007.08556         6.12550         6.27300
     2007.08830         1.66377         6.17014
     2007.09104         4.16104         6.16467
     2007.09378        -0.07069         6.06291
     2007.09651        -0.56242         6.05088
     2007.09925         0.42185         6.12966
     2007.10199         0.61712         6.11215
     2007.10473        -9.63861         6.25440
     2007.10747        -7.55234         6.19422
     2007.11020       -17.80707         6.05197
     2007.11294        -1.08480         6.13951
     2007.11568         2.25147         6.13622
     2007.11842         2.24573         6.10449
     2007.12115        -0.22500         6.04541
     2007.12389        -3.25873         6.06729
     2007.12663        -0.29946         6.08261
     2007.12937         3.10481         6.26206
     2007.13211        -1.66392         6.17999
     2007.13484         4.93435         6.11981
     2007.13758         8.33662         6.10340
     2007.14032         5.98489         6.11544
     2007.14306        17.89716         6.22048
     2007.71527         7.21851         6.67128
     2007.71801         2.08978         6.35178
     2007.72074         8.50405         6.82119
     2007.72351         9.08033         6.80149
     2007.72622        -2.43641         6.71505
     2007.72892         7.35184         7.14835
     2007.73168         1.69912         7.45910
     2007.73441         3.93539         7.23042
     2007.73683         0.83851         7.66262
     2008.17523       -10.69720         6.33756
     2008.17797        -7.90093         6.15154
     2008.18070       -10.87666         6.19859
     2008.18344        -8.26339         6.26315
     2008.18618        -6.47412         6.26096
     2008.18892       -13.30785         6.23798
     2008.19165       -11.34258         6.19312
     2008.19439        -8.67031         6.17233
     2008.19713        -9.65604         6.24564
     2008.19987         7.98323         6.26206
     2008.20261        -6.77450         6.21282
     2008.20534         0.60577         6.25440
     2008.20808        -5.57396         6.44588
     2008.21082        -8.64169         6.36710
     2008.21356        -8.19042         6.32552
     2008.21629         1.13385         6.37585
     2008.21903         0.36612         6.33099
     2008.22177        -9.40661         6.30364
     2008.22451        -8.68234         6.34193
     2008.22725        -8.24207         6.31239
     2008.22998        17.12020         6.55311
     2008.23272         3.71746         6.50059
     2008.23546        -2.16227         6.40977
     2008.23820        -4.40700         6.32005
     2008.24094         7.36927         6.33646
     2008.24367        -5.43846         6.27409
     2008.24641        -4.06619         6.22704
     2008.24915        -6.24692         6.28613
     2008.25189        -3.01465         6.31458
     2008.25462        -5.29438         6.21172
     2008.25736        -5.06911         6.24236
     2008.26010         2.45216         6.31130
     2008.26284         3.45243         6.25002
     2008.26558        -0.00930         6.23580
     2008.26831        -2.21903         6.20954
     2008.27105         0.28724         6.20735
     2008.27379        -6.28549         6.23033
     2008.27653        -6.39722         6.23033
     2008.27927        -9.33495         6.38679
     2008.28200        -4.38268         6.21391
     2008.28474         0.82159         6.26315
     2008.28748         1.57986         6.34631
     2008.29022        -1.45887         6.31458
     2008.29295        -4.74060         6.26643
     2008.29569        -6.06333         6.22595
     2008.29843        -3.45206         6.18437
     2008.30117         5.68920         6.22923
     2008.30391        -2.20253         6.21829
     2008.30664         6.60374         6.24455
     2008.30938        -7.84399         6.41743
     2008.31212         0.32028         6.31348
     2008.31486        -4.38845         6.16905
     2008.31760        -9.21718         6.34193
     2008.32033        -7.55191         6.42400
     2008.32307       -10.44164         6.48637
     2008.32581        -0.64637         6.73475
     2008.32855        -1.80110         6.22267
     2008.33128        -7.75083         6.25659
     2008.33402        -3.40256         6.20735
     2008.33676        -6.84429         6.22814
     2008.33950         1.76198         6.27847
     2008.34224        -4.15975         6.16467
     2008.34497        -4.90648         6.20844
     2008.34771         2.01179         6.24346
     2008.35045        -5.91594         6.22376
     2008.35319         2.03033         6.23689
     2008.35593        -1.95140         6.11325
     2008.35866        -3.44413         6.12528
     2008.36140         1.15914         6.13075
     2008.36414        -3.10559         6.14279
     2008.36688        -7.58332         6.18109
     2008.36961        -0.13405         6.16686
     2008.37235        -3.13579         6.14170
     2008.37509        -4.99152         6.09683
     2008.37783       -11.42925         6.17233
     2008.38057        -1.42098         6.18875
     2008.38330        -4.80571         6.27628
     2008.38604         0.48656         6.22704
     2008.38878         3.64683         6.28066
     2008.39152        -4.69990         6.29598
     2008.39426        -5.02063         6.16139
     2008.39699        -2.68036         6.15373
     2008.39973         1.64191         6.18327
     2008.40247        -7.31182         6.18656
     2008.40521        -1.94955         6.14935
     2008.40794        -4.11228         6.14388
     2008.41068         0.16699         6.17452
     2008.41342         1.07426         6.28941
     2008.41616        -2.36947         6.23251
     2008.41890         1.22980         6.20954
     2008.42163        -4.72593         6.31020
     2008.42437        12.77434         6.26096
     2008.42711         0.47261         6.16467
     2008.42985         4.82788         6.39555
     2008.43259        -0.73285         6.30911
     2008.43532        -1.71558         6.23470
     2010.27242         4.18432         6.36710
     2010.27516         0.80059         6.29926
     2010.27790         2.50086         6.35616
     2010.28063         2.27913         6.24564
     2010.28337        -2.24560         6.44697
     2010.28611        -5.60733         6.42290
     2010.28885         0.79894         6.19203
     2010.29159        -0.89179         6.31567
     2010.29432         0.74448         6.36053
     2010.29706        -0.77725         6.23580
     2010.29980         0.16202         6.40977
     2010.30254         4.52929         6.33208
     2010.30528         3.47556         6.37695
     2010.30801         0.95383         6.22485
     2010.31075         1.01010         6.27409
     2010.31349         1.67837         6.24346
     2010.31623         1.54764         6.22485
     2010.31896        14.42391         6.52138
     2010.32170        11.74917         6.29926
     2010.32444         4.29844         6.29926
     2010.32718         4.03671         6.20954
     2010.32992         2.34798         6.22814
     2010.33265         4.73225         6.22048
     2010.33539         7.96752         6.34303
     2010.33813         7.18279         6.34740
     2010.34087         7.18506         6.11762
     2010.34361         5.60933         6.12966
     2010.34634         1.67760         6.21391
     2010.34908         2.85487         6.16139
     2010.35182         2.04914         6.14279
     2010.35456         2.48841         6.20406
     2010.35729         1.20668         6.18656
     2010.36003         2.73095         6.21391
     2012.47092        -0.22318         6.08261
     2012.47365         6.01609         6.11106
     2012.47639        12.86636         6.19750
     2012.47913         6.20863         6.14826
     2012.48187         1.58589         6.05197
     2012.48460        -0.51384         6.08261
     2012.48734        -1.18657         6.02352
     2012.49008         0.76970         6.02899
     2012.49282        -4.62803         6.01915
     2012.49556         0.81524         6.04978
     2012.49829         4.27551         6.04978
     2012.50103         1.71078         6.01368
     2012.50377        14.95805         6.29269
     2012.50651         4.49432         6.02024
     2012.50924         5.44659         6.21938
     2012.51198        -0.30214         6.20844
     2012.51472        -2.45187         6.02133
     2012.51746        -4.37960         6.09793
     2012.52020        -0.32333         6.03775
     2012.52293        -3.65106         6.07604
     2012.52567        -2.45279         6.05197
     2012.52841         6.17548         6.02352
     2012.53115         6.02075         6.14060
     2012.53389        -0.49998         6.09793
     2012.53662         2.88129         5.99726
     2012.53936        -0.76744         6.08042
     2012.54210         6.23483         6.00820
     2012.54484         3.78810         5.99726
     2012.54757         6.90537         6.03337
     2012.55031         6.75064         6.01915
     2012.55305        -1.11210         6.05744
     2012.55579         5.31417         6.06620
     2012.55853         9.20244         6.36819
     2012.56126         8.50371         6.12638
     2014.28885         2.78084         6.52138
     2014.29159         0.49911         6.24127
     2014.29432         9.12037         6.29379
     2014.29706         5.28964         6.27190
     2014.29980        -0.48009         6.22814
     2014.30254         2.38618         6.29488
     2014.30528        11.49845         6.33537
     2014.30801         4.58472         6.25002
     2014.31075        11.52299         6.25330
     2014.31349         4.64426         6.30145
     2014.31623         9.26653         6.24127
     2014.31896         2.03780         6.27519
     2014.32170         0.60907         6.40649
     2014.32444         0.46234         6.34631
     2014.32718        -1.69639         6.37148
     2014.32992         3.61888         6.27628
     2014.33265         2.57815         6.27190
     2014.33539         3.17642         6.29488
     2014.33813         4.87069         6.43056
     2014.34087         4.74096         6.32771
     2014.34361        10.37923         6.25330
     2014.34634         4.46950         6.24017
     2014.34908         1.70877         6.36600
     2014.35182        11.38104         6.48418
     2014.35456         9.25431         6.28832
     2014.35729         2.10758         6.23251
     2014.36003        -2.56815         6.20735
     2014.36277        -0.95189         6.23580
     2014.36551         0.23438         6.20844
     2014.36825        -1.68935         6.30364
     2014.37098        -2.89508         6.26643
     2014.37372         3.00319         6.29816
     2014.37646         9.45146         6.38570
     2014.37920         3.88773         6.32443
     2014.38193         0.05700         6.36819
     2014.38467         3.89027         6.41196
     2014.38741        -1.45946         6.45901
     2014.39015         3.66781         6.40868
     2014.39289         3.70808         6.36710
     2014.39562         4.83835         6.37038
     2014.39836         4.46162         6.41634
     2014.40110         3.99989         6.39883
     2014.40384         3.08916         6.35725
     2014.40658         0.00943         6.34522
     2014.40931         2.14170         6.36600
     2014.41205         3.85597         6.30582
     2014.41479        -1.72076         6.28832
     2014.41753         5.93051         6.25330
     2014.42026         6.18978         6.28832
     2014.42300         1.40305         6.29488
     2014.42574         5.60332         6.29379
     2014.42848         4.63459         6.33208
     2014.43122         1.36986         6.29926
     2014.43395         5.27212         6.29598
     2014.43669         5.59439         6.29816
     2014.43943        11.05366         6.34193
     2014.44217         5.77093         6.33099
     2014.44491        12.64820         6.47105
     2014.44764         9.87647         6.46558
     2014.45038        10.77674         6.27628
     2014.45312        -1.71499         6.29488
     2014.45586        13.15528         6.30582
     2014.45859        -0.02945         6.38789
     2014.46133         1.61982         6.28832
     2014.46407         3.01809         6.29707
     2014.46681         0.96636         6.27738
     2014.46955         4.99063         6.28832
     2014.47228         7.14490         6.31786
     2014.47502         9.99817         6.29816
     2014.47776         3.04744         6.33318
     2014.48050         9.54671         6.23251
     2014.48324        14.08598         6.29707
     2014.48597         3.51125         6.35944
     2014.48871        11.12252         6.37038
     2014.49145         5.16679         6.17671
     2014.49419         3.92706         6.21391
     2017.25668        -9.59791         5.99726
     2017.25942       -12.76564         6.06073
     2017.26215        -5.01637         6.17452
     2017.26489       -14.42010         6.10230
     2017.26763        -2.26683         6.07933
     2017.27037        -8.51156         6.03446
     2017.27311       -13.42329         6.06838
     2017.27584        -9.47102         6.08808
     2017.27858        -4.84675         6.15483
     2017.28132       -14.02548         6.11762
     2017.28406       -12.84021         6.00711
     2017.28679       -12.52394         6.00602
     2017.28953        -8.38068         6.04431
     2017.29227       -10.23941         6.12200
     2017.29501       -14.30314         6.13185
     2017.29775       -12.43387         6.02352
     2017.30048       -16.18760         6.01477
     2017.30322        -9.21933         6.05744
     2017.30596       -16.84706         6.04869
     2017.30870        -9.64379         6.04760
     2017.31144        -0.63052         6.10012
     2017.31417        -7.34325         6.05197
     2017.31965        -7.25571         6.29379
     2017.32512       -10.93917         6.03665
     2017.32786       -10.73890         6.01258
     2017.33060       -15.20863         6.00273
     2017.33334       -14.26836         6.03009
     2017.33608       -11.35909         6.02133
     2022.67488         0.24264         6.10449
     2022.67762         1.18391         6.08589
     2022.68036         2.36018         6.11872
     2022.68310        -1.99755         6.19312
     2022.68584        -1.90828         6.39008
     2022.68857         3.27299         6.25440
     2022.69131         3.68926         6.21501
     2022.69405        -1.03047         6.26643
     2022.69679         2.41080         6.38023
     2022.69953        -5.72693         6.34522
     2022.70226         1.84634         6.33974
     2022.70500         5.77561         6.36600
     2022.70774         0.57288         6.22267
     2022.71048        -0.90585         6.11434
     2022.71321         6.10342         6.19422
     2022.71595         0.27869         6.11981
