# ================= DQRFIT RESULTS ================
# INPUT FILE: series/GARR.rad
# OUTPUT: LDETRENDED
# FILTER FUNCTION: f(t)
# f(t)=+line(t)
# line(t)=+P 1+P 2*t
# heav(t)=(t<0?0:1)
# TOTAL OBSERVATIONS MTOT=  278
# INITIAL TIME INTERVAL= 2018.3516 - 2006.5134 = 11.8382
# TOTAL OBSERVATIONS AFTER PREFILTER M=  278
# TIME-SPAN=    0.0000 -    0.0000 =  0.0000
# OBSERVATIONS: USED M=   278 REJECTED MTOT-M=     0 %USED=  100.0000
# N=  2 PARAMETERS
# MAXSIG= 175.00000
# MAXRES=  16.23549
# SCALE FACTOR FOR LENGTHS: SCL=  10.00000
# SCALE FACTOR FOR SIGMAS: SCLSIG=   1.00000
# CHI^2=    319.222 DOF=   276 CHI^2/DOF=   1.15660
# RMS=      6.258 SDEV=      6.269 MEAN=    0.06561
#  P #       PARAMETER +-    SIGMA %error PARAMETER NAME
# P 1 =      2681.58614 +-  146.708   5.47 YZERO                              
# P 2 =        -1.33049 +-    0.073   5.48 SLOPE                              
#       T            LDETRENDED       SIG_OBS
     2006.51335        10.66621         6.81085
     2006.51609         6.82885         7.03992
     2006.51883        12.15850         6.87215
     2006.52157         7.31714         6.98937
     2006.52430         5.80178         6.76675
     2006.52704         7.49342         6.98077
     2006.52978        13.52807         6.91947
     2006.53252         2.36571         6.92915
     2006.53525        11.45735         6.80547
     2006.53799         5.78599         6.89258
     2006.54073         7.91764         6.90011
     2006.54347        15.56628         6.56026
     2006.54621         8.75392         6.56887
     2006.54894         4.98957         6.48713
     2006.55168         0.27421         6.39249
     2006.55442         8.90385         6.49036
     2006.55716         5.65749         6.84634
     2006.55990        12.74214         6.52262
     2006.56263        10.62678         6.27957
     2006.56537        10.96242         6.44304
     2006.56780         1.00365         7.15499
     2007.05271        -2.66218         6.29678
     2007.05545        -2.63854         6.15267
     2007.05818        -3.70789         6.06233
     2007.06092        -3.59625         6.06018
     2007.06366        -5.07861         6.09567
     2007.06640        -4.50597         6.15482
     2007.06914        -0.12532         6.03975
     2007.07187         3.19732         6.01931
     2007.07461        -0.06504         6.01071
     2007.07735        -0.32739         6.02146
     2007.08009         0.04425         6.02684
     2007.08282         1.29489         5.99350
     2007.08556         1.35453         6.16020
     2007.08830         3.05618         6.21612
     2007.09104         0.98482         6.11180
     2007.09378        -4.59954         6.09352
     2007.09651        -1.63290         6.14944
     2007.09925        -2.75125         6.11718
     2007.10199        -1.82761         6.13439
     2007.10473        -5.22597         6.20967
     2007.10747        -2.17932         6.19138
     2007.11020        -4.58668         6.00963
     2007.11294         1.95396         6.14406
     2007.11568        -4.28840         6.10642
     2007.11842        -0.30375         6.08491
     2007.12115        -2.47211         6.00210
     2007.12389         2.67253         6.09137
     2007.12663         1.67817         6.11288
     2007.12937        -3.88818         6.30108
     2007.13211         0.73946         6.16988
     2007.13484         4.89610         6.11288
     2007.13758         5.39174         6.28818
     2007.14032         4.64639         6.27419
     2007.14306         1.69103         6.19999
     2007.14580         3.43667         6.24301
     2007.14853        -1.14768         6.21397
     2007.15127         6.56896         6.14837
     2007.15401         3.57460         6.05158
     2007.15675         8.69224         6.07739
     2007.15948         7.45389         6.06341
     2007.16222         3.74253         6.37636
     2007.16496         2.01317         6.29678
     2007.16770        -1.42619         6.28602
     2007.17044        -1.89554         6.32582
     2007.17317         0.85510         6.32474
     2007.17591         0.43674         6.38712
     2007.17865         7.05939         6.39464
     2007.18139         1.43103         6.54628
     2007.18413        -1.85333         6.40970
     2007.18686         1.89031         6.52155
     2007.18960         0.30696         6.35485
     2007.19234        -1.17040         6.37421
     2007.19508         0.13824         6.38174
     2007.72074        -4.26336         6.21612
     2007.72348        -7.13172         6.33119
     2007.72622        -2.49108         6.25053
     2007.72896         1.41557         6.25699
     2007.73170        -4.71679         6.33765
     2007.73443        -4.75615         6.30323
     2007.73717        -6.36451         6.38174
     2007.73991        -4.75286         6.27850
     2007.74265        -2.31022         6.35593
     2007.74538        -2.15358         6.30001
     2007.74812        -3.75793         6.54628
     2007.75086        -0.06629         6.56349
     2007.75360        -2.37965         6.51187
     2007.75634         7.69599         6.42906
     2007.75907         5.00664         6.28495
     2007.76181        -3.42672         6.24516
     2007.76455        -8.19608         6.24731
     2007.76729        -3.89844         6.70115
     2007.77003        -4.73579         6.72696
     2007.77276       -11.93915         6.63124
     2007.77550        -2.10751         6.33012
     2007.77824         0.95714         6.32797
     2007.78098         0.27278         6.31399
     2007.78371        -3.62658         6.23978
     2007.78645        -0.69794         6.30646
     2007.78919        -2.67229         6.32474
     2007.79193       -11.07065         6.43013
     2007.79467         3.72799         6.52908
     2007.79740        -1.36537         6.55381
     2007.80014        14.79128         6.52908
     2007.80288        -4.98208         6.28495
     2007.80562        -4.97244         6.21720
     2007.80836        -6.21680         6.41400
     2007.81109        -0.80315         6.46132
     2007.81383        -2.94351         6.44304
     2007.81657        -6.13487         6.49896
     2007.81931        -5.85922         6.28710
     2007.82204        -7.40758         6.39680
     2007.82478        -7.25694         6.42798
     2007.82752        -8.78730         6.47423
     2007.83026       -12.94065         6.34195
     2007.83300       -13.49901         6.25376
     2007.83573        -4.74637         6.20644
     2007.83847        -8.52473         6.21827
     2007.84121        -6.06008         6.23763
     2007.84395       -12.85444         6.24408
     2007.84669       -15.06380         6.26452
     2007.84942       -11.78715         6.22365
     2007.85216        -7.71051         6.32151
     2007.85490        -6.86187         6.42583
     2007.85764        -9.36323         6.37851
     2007.86037       -12.09558         6.18063
     2007.86311        -7.40394         6.22903
     2007.86585       -13.77930         6.22687
     2007.86835        -5.69997         6.76245
     2008.61335         9.96325         6.51832
     2008.61602         9.41280         6.31184
     2008.64066        13.48358         6.30861
     2008.65161        10.11615         6.48068
     2011.84395        -1.14046         6.16665
     2011.84669        -3.88582         6.15159
     2011.84942        -4.76018         6.13331
     2011.85216        -9.70654         6.20214
     2011.85490       -10.68789         6.32689
     2011.85764        -5.20325         6.28925
     2011.86037        -2.43461         6.15267
     2011.86311        -0.55296         6.10857
     2011.86585         7.36868         6.27419
     2011.86859         7.05732         6.19999
     2011.87133        -3.70904         6.17848
     2011.87954         1.43389         6.34087
     2011.89597        -3.45825         6.27312
     2011.90418        -7.33732         6.13116
     2011.91513        -0.59475         6.76568
     2011.92334        -7.33783         6.23225
     2013.80972        15.40799         6.05803
     2013.81246        15.96163         6.06771
     2013.81520        14.26028         6.06233
     2013.81794        11.79392         6.11073
     2013.82068         7.08156         6.19461
     2013.82341        14.25420         6.04082
     2013.82615        12.11585         6.14944
     2013.82889        16.23549         5.96124
     2013.83163        14.31713         6.03114
     2013.83436        13.04978         6.21504
     2013.83710        14.09742         6.15912
     2017.89186        -1.84575         6.03759
     2017.89460         3.96889         6.09997
     2017.89734         4.31153         6.19138
     2017.90007         6.48118         6.14837
     2017.90281        -4.58118         6.12471
     2017.90555         9.70746         6.28387
     2017.90829         4.24711         5.96016
     2017.91102         7.31075         6.15267
     2017.91376         2.91039         6.15052
     2017.91650         4.46903         6.03975
     2017.91924         8.97368         6.04190
     2017.92198        10.08032         6.02361
     2017.92471         5.44896         6.03329
     2017.92745         2.46460         6.00210
     2017.93019        -2.39975         6.06341
     2017.93293         0.46389         6.06771
     2017.93567         0.01753         5.99995
     2017.93840         3.03217         5.98490
     2017.94114         3.14482         6.00533
     2017.94388         4.17046         6.27312
     2017.94662        -0.46490         6.83235
     2017.94935         1.36475         6.58177
     2017.95209         2.79539         7.01196
     2017.95483         1.11703         6.86032
     2017.98768         0.99274         6.08814
     2017.99316         0.85703         6.03114
     2017.99864         0.73531         6.02039
     2018.02601        -2.32326         6.83988
     2018.03423        -2.93233         5.98597
     2018.03970        -2.41805         6.67104
     2018.05339         0.33817         6.06233
     2018.05887        -6.72155         6.08599
     2018.07803        -5.83605         6.18171
     2018.08351        -5.32976         6.36131
     2018.08625        -7.02212         6.12686
     2018.08898        -6.55448         6.17095
     2018.09172        -3.04683         6.18386
     2018.09446        -0.04319         6.18278
     2018.09720        -1.02755         6.37959
     2018.09994        -4.33991         6.24516
     2018.10267        -7.31426         6.16988
     2018.10541        -6.91262         6.27204
     2018.10815         1.43502         6.20429
     2018.11089        -3.89134         6.27204
     2018.11363        -0.97169         6.22365
     2018.12184         1.07524         6.35055
     2018.12458        -1.20012         6.88398
     2018.12731        -1.52248         6.19569
     2018.13005         2.13716         6.14622
     2018.13279         6.18981         6.28172
     2018.13553         8.38645         6.15697
     2018.13827         3.80409         6.63124
     2018.14100        -4.18227         6.13223
     2018.14374        -1.18462         6.17203
     2018.14646         0.06099         6.92269
     2018.17933        -4.76327         6.24623
     2018.18207         4.22337         6.37314
     2018.18481         4.07702         6.28495
     2018.18755         1.77366         6.28065
     2018.19029        -2.21970         6.15267
     2018.19302         1.09295         6.14514
     2018.19576         1.57059         6.22365
     2018.19850         2.19223         6.10212
     2018.20124         7.59887         6.28602
     2018.20397        -9.40048         6.18601
     2018.20671         2.68016         6.10750
     2018.21219         1.64344         6.12148
     2018.21493        -9.57791         6.11180
     2018.21766        -2.09227         6.03759
     2018.22040        -5.84263         6.02899
     2018.22314        -4.83698         6.11825
     2018.22588        -8.16934         6.06986
     2018.22862        -8.10970         6.03222
     2018.23135        -1.87206         6.05158
     2018.23409        -0.72541         6.01824
     2018.23683        -2.10177         6.06771
     2018.23957        -4.99613         6.02361
     2018.24230        -1.43049         6.03759
     2018.24504        -1.52584         5.99243
     2018.24778         1.50980         6.07631
     2018.25052         4.72744         6.14837
     2018.25326        -1.62592         6.01071
     2018.25599        -2.29127         6.02576
     2018.25873        -4.34363         6.19138
     2018.26147        -9.25199         6.12578
     2018.26421        -5.69034         6.00856
     2018.26695        -5.95370         6.10105
     2018.26968        -2.93006         5.95909
     2018.27242        -9.58042         6.06771
     2018.27516         2.75123         6.14514
     2018.27790        15.31687         6.46132
     2018.28063        -4.45349         6.06986
     2018.28337        -2.90785         6.02039
     2018.28611         2.17480         6.24731
     2018.28885         2.92544         6.08169
     2018.29159         5.26108         6.20967
     2018.29432        -0.16627         6.02146
     2018.29706        -2.02963         5.92575
     2018.29980        -2.21499         5.95478
     2018.30254        -2.29635         6.00641
     2018.30528        -2.08570         5.94618
     2018.30801         2.80894         5.93650
     2018.31075        -2.25442         5.93758
     2018.31349        -0.66778         5.95048
     2018.31623        -3.74313         5.96877
     2018.31896         6.89651         6.25591
     2018.32170        -4.75585         5.96877
     2018.32444         5.47179         6.02039
     2018.32718        -3.15356         5.99565
     2018.32992         4.08008         6.16342
     2018.33265         4.34472         5.95156
     2018.33539        -1.71963         6.18708
     2018.33813        -3.29499         6.17525
     2018.34087        -2.75235         5.96877
     2018.34361        -5.98371         5.99995
     2018.34634        -7.02306         6.00641
     2018.34908        -1.44142         6.04620
     2018.35160         1.08892         6.78719
