# ================= DQRFIT RESULTS ================
# INPUT FILE: series/GORG.rad
# OUTPUT: LDETRENDED
# FILTER FUNCTION: f(t)
# f(t)=+line(t)
# line(t)=+P 1+P 2*t
# heav(t)=(t<0?0:1)
# TOTAL OBSERVATIONS MTOT=  361
# INITIAL TIME INTERVAL= 2022.7488 - 2021.7550 =  0.9938
# TOTAL OBSERVATIONS AFTER PREFILTER M=  361
# TIME-SPAN= 2022.7488 - 2021.7550 =  0.9938
# OBSERVATIONS: USED M=   361 REJECTED MTOT-M=     0 %USED=  100.0000
# N=  2 PARAMETERS
# MAXSIG= 175.00000
# MAXRES=  20.14328
# SCALE FACTOR FOR LENGTHS: SCL=  10.00000
# SCALE FACTOR FOR SIGMAS: SCLSIG=   1.00000
# CHI^2=    536.809 DOF=   359 CHI^2/DOF=   1.49529
# RMS=      6.946 SDEV=      6.956 MEAN=   -0.00387
#  P #       PARAMETER +-    SIGMA %error PARAMETER NAME
# P 1 =     68512.43994 +- 2585.306   3.77 YZERO                              
# P 2 =        -0.36738 +-    1.278 347.98 SLOPE                              
#       T            LDETRENDED       SIG_OBS
     2021.75496         2.31188         7.11681
     2021.75770         4.98088         7.42496
     2021.76043         6.94589         7.14371
     2021.76317         2.49689         7.08624
     2021.76591         3.88190         6.83801
     2021.76865         1.14791         6.95540
     2021.77138         5.09391         6.86369
     2021.77412        -2.75108         7.31491
     2021.77686         7.67192         6.85880
     2021.77960         9.28593         6.86002
     2021.78234         3.40794         6.88692
     2021.78507        14.11994         6.78787
     2021.78781         8.34695         6.85268
     2021.79055         2.63895         6.88814
     2021.79329         6.97896         6.78910
     2021.79603         7.75196         6.79032
     2021.79876         5.28197         6.74752
     2021.80150         6.81298         7.13026
     2021.80424         5.04798         7.01899
     2021.80698         4.66499         6.84168
     2021.80971         6.69499         7.07646
     2021.81245        12.42900         7.08380
     2021.81519        10.89101         6.96641
     2021.81793        15.20901         6.79521
     2021.82067         0.11202         7.28434
     2021.82340         9.44202         7.17795
     2021.82614        -3.65197         7.20730
     2021.82888        10.24303         6.86858
     2021.83162        11.68004         6.89426
     2021.83436         8.14205         6.90526
     2021.83709        -8.13295         7.09480
     2021.83983        -7.55294         6.99575
     2021.84257        -0.09094         6.96885
     2021.84531         2.80107         6.97619
     2021.84804         6.52608         6.91016
     2021.85078         0.90708         6.91872
     2021.85352         3.12309         6.88937
     2021.85626         3.68309         6.85391
     2021.85900         0.42710         6.88203
     2021.86447        -5.50589         6.98842
     2021.86721       -10.71988         7.18651
     2021.86995         0.19412         7.42619
     2021.87269         4.54513         7.13638
     2021.87542         1.30813         7.12293
     2021.87816         0.38214         6.82700
     2021.88090         0.98115         6.76586
     2021.88364       -10.74985         6.83801
     2021.88637        -5.20684         6.80744
     2021.88911         0.87316         6.72918
     2021.89185        -2.54083         7.00064
     2021.89459         0.40917         6.87592
     2021.89733        -0.84982         6.76586
     2021.90006        -4.50781         6.83312
     2021.90280        -6.35281         6.97252
     2021.90554        -0.30280         6.77809
     2021.90828         7.12420         6.99331
     2021.91102         2.52121         6.93339
     2021.91375         0.56822         7.01654
     2021.91649        -2.31678         7.01287
     2021.91923       -10.50377         7.33692
     2021.92197        -2.61977         7.20119
     2021.92470        -8.94476         7.05689
     2021.92744         4.40824         6.97619
     2021.93018        -5.59375         6.93950
     2021.93292         6.68326         7.07890
     2021.93566        10.38226         7.30757
     2021.93839        12.80427         7.13638
     2021.94113         8.11327         7.17795
     2021.94387        20.14328         7.05812
     2021.94661         5.25929         6.95785
     2021.94935         7.78929         6.92361
     2021.95208         6.15730         6.95540
     2021.95482         6.95130         6.97007
     2021.95756         9.94731         6.95295
     2021.96030         2.39732         6.86124
     2021.96303        -0.02068         7.01287
     2021.96577         6.24233         6.89426
     2021.96851         0.66533         6.93583
     2021.97125         5.32434         6.96029
     2021.97399         2.24134         7.02510
     2021.97672        11.24635         6.88814
     2021.97946        16.29436         6.87714
     2021.98220         8.76436         6.95418
     2021.98494        12.99537         6.93461
     2021.98767         9.14237         6.98230
     2021.99041        11.05538         6.95173
     2021.99315         7.08139         6.89670
     2021.99589        12.10839         7.02632
     2021.99863         7.33940         6.91749
     2022.00136         5.84040         6.94684
     2022.00410         2.03241         6.94439
     2022.00684        -3.33459         6.93461
     2022.00958         1.53942         6.91994
     2022.01232       -13.24757         6.94195
     2022.01505         3.51043         6.92238
     2022.01779         4.50044         7.17428
     2022.01990         8.07821        10.41720
     2022.02345        -5.36048         8.04493
     2022.02600        -8.47254         7.10092
     2022.02874        -3.23254         6.96518
     2022.03148        -5.35653         7.04467
     2022.03422        -7.25053         7.00187
     2022.03696        -5.54352         7.06790
     2022.03969        -9.18852         7.46042
     2022.04243        -5.61951         7.01410
     2022.04517        -0.98350         7.02999
     2022.04791        -4.08050         6.90037
     2022.05065        -2.17349         7.01899
     2022.05338        -8.03349         7.16328
     2022.05612        -9.75848         7.06912
     2022.05886       -10.14947         6.89915
     2022.06160        -7.97247         6.94806
     2022.06433        -3.32446         7.10581
     2022.06707        -6.35646         7.00309
     2022.06981         0.11655         6.93950
     2022.07255       -10.33145         6.89548
     2022.07529        -2.56844         6.76097
     2022.07802        -1.65443         6.83679
     2022.08076        -0.60143         6.92483
     2022.08350        -2.10742         7.00309
     2022.08624        -5.23242         6.86858
     2022.08898        -4.10841         6.82945
     2022.09171        -2.29240         6.76586
     2022.09445        -8.95040         6.92116
     2022.09719        -5.42339         6.81600
     2022.09993        -6.73639         7.07279
     2022.10266        -6.35038         7.10214
     2022.10540        -1.77438         6.77809
     2022.10814         2.50863         6.76219
     2022.11088        -1.44636         6.87225
     2022.11362         2.29864         6.74630
     2022.11635         0.26265         6.79276
     2022.11909        -1.57535         6.76219
     2022.12183         0.72166         6.80866
     2022.12457         5.02967         6.96396
     2022.12731        -1.87333         6.80255
     2022.13004        -9.69932         6.82211
     2022.13278        -6.74732         6.91872
     2022.13552         1.26169         6.84412
     2022.13826         3.29569         6.87958
     2022.14099         0.22170         6.71940
     2022.14373        -9.90829         6.74263
     2022.14647         1.59771         6.74630
     2022.14921         0.63872         7.02632
     2022.15195        -0.12928         7.05445
     2022.15468         2.09973         6.72429
     2022.15742        -0.19726         6.82211
     2022.16016        -4.94026         6.76831
     2022.16290       -11.60725         6.87592
     2022.16564        -4.34125         6.82089
     2022.16837         2.59276         6.77075
     2022.17111         0.13176         6.79766
     2022.17385        -1.61723         6.79766
     2022.17659        -0.62622         6.77442
     2022.17932        -6.22422         6.80377
     2022.18206        -6.69021         6.76586
     2022.18480        -4.71121         6.82334
     2022.18754        -1.44920         6.87714
     2022.19028        -4.96319         6.88814
     2022.19301         0.79281         6.85880
     2022.19575         1.30682         6.86858
     2022.19849        -5.36618         6.76464
     2022.20123        -2.96017         6.82334
     2022.20397         1.62984         6.80988
     2022.20670        -2.23016         7.05812
     2022.20944         3.46685         6.92238
     2022.21218        -0.11115         6.83067
     2022.21492         0.44286         6.79154
     2022.21765        -5.76114         6.80744
     2022.22039        -2.18213         6.78665
     2022.22313        -3.56912         6.89304
     2022.22587        -8.14312         6.98719
     2022.22861        -1.84511         6.86858
     2022.23134        -0.87711         6.77198
     2022.23408         2.20190         6.87714
     2022.23682         3.49891         7.02021
     2022.23956        -0.49909         6.83679
     2022.24230        -1.06908         7.91287
     2022.24504        -0.72308         8.61354
     2022.24775         1.42692         8.45702
     2022.25048        -1.70908         7.50445
     2022.25325        -6.80606         7.90920
     2022.25598         3.27895         6.98719
     2022.25872         5.98995         6.94929
     2022.26146        -5.90104         6.83067
     2022.26420        -0.17804         6.91505
     2022.26694        -5.20503         7.34303
     2022.26967        -2.07302         6.91260
     2022.27241         3.04998         6.87225
     2022.27515         0.43299         7.00187
     2022.27789        -4.13001         6.83189
     2022.28062        -4.14200         6.85880
     2022.28336        -0.87400         6.72796
     2022.28610        -1.15699         6.97619
     2022.28884         0.57302         6.94562
     2022.29158        -6.23898         6.78421
     2022.29431        -5.22997         6.87958
     2022.29705        -5.75397         6.97496
     2022.29979         2.57904         6.75608
     2022.30253        -1.05495         6.95295
     2022.30527        -3.81895         6.97741
     2022.30800        -3.34494         6.83312
     2022.31074        -6.53494         6.84657
     2022.31348        -2.62493         6.77809
     2022.31622        -5.88493         6.87958
     2022.31895       -23.22192         7.16328
     2022.32169         0.07409         7.04956
     2022.32443        -1.62791         6.82456
     2022.32717       -11.65290         6.80866
     2022.32991        -5.89990         6.75608
     2022.33264        -9.45989         6.98475
     2022.33538        -6.03288         7.09480
     2022.33812        -3.97288         7.07524
     2022.34086         0.24913         6.87225
     2022.34360        -7.57287         6.97374
     2022.34633        -0.34386         6.80377
     2022.34907        -2.86586         6.77931
     2022.35181         3.10215         6.80866
     2022.35455        -5.58284         6.89181
     2022.35728        -8.77084         6.91260
     2022.36002        -3.14583         6.84535
     2022.36276        -7.34883         6.86736
     2022.36550        -4.23582         6.82456
     2022.36824        -4.34381         6.95785
     2022.37097        -8.69281         6.85268
     2022.37371       -11.75280         6.79399
     2022.37645        -9.26580         6.92116
     2022.37919        -5.53679         7.16695
     2022.38193       -10.35579         6.97007
     2022.38466        -8.04178         6.89181
     2022.38740       -20.44677         6.79032
     2022.38966        -5.30094        10.68622
     2022.39590       -10.22965         7.77591
     2022.39835        -4.56075         6.83312
     2022.40109       -10.68474         6.96885
     2022.40383         0.23626         6.74385
     2022.40657        -0.87373         6.78298
     2022.40930        -8.04873         6.85880
     2022.41204        -8.10272         7.03244
     2022.41478        -4.65571         6.65703
     2022.41752        -1.46871         6.82456
     2022.42026        -6.95970         7.03611
     2022.42299         2.63230         6.69861
     2022.42573       -10.64469         6.86002
     2022.42847        -2.15969         6.77687
     2022.43121        -3.42868         6.91749
     2022.43394         6.22533         6.96885
     2022.43668        -5.15467         6.85880
     2022.43942       -13.35166         6.95173
     2022.44216        -9.41166         7.01654
     2022.44490         7.00635         6.91627
     2022.44763        -3.29164         6.68638
     2022.45037        -4.15464         6.71084
     2022.45311       -10.20763         6.70839
     2022.45585        -4.63063         7.07279
     2022.45859       -11.78162         6.71328
     2022.46132        -5.19362         6.79276
     2022.46406       -10.98961         6.81967
     2022.46680        -5.07160         6.72551
     2022.46954        -6.77160         6.78421
     2022.47227        -7.06959         6.76342
     2022.47501         9.37441         7.06301
     2022.47775        -2.67458         7.10948
     2022.48049        -4.92557         6.82334
     2022.48323         4.13543         6.74385
     2022.48596         2.42244         6.78787
     2022.48870        -9.67056         7.11681
     2022.49144       -13.16255         6.83312
     2022.49418        -3.49555         6.97619
     2022.49692         0.89346         6.80622
     2022.49965        -4.37853         6.79154
     2022.50239       -18.25553         6.92605
     2022.50513        -1.30452         7.13393
     2022.50787         5.49448         7.08135
     2022.51060        -2.84551         6.94562
     2022.51334        -8.85350         6.99086
     2022.51608        -8.52650         6.77075
     2022.51882       -10.10549         6.81233
     2022.52156        -8.82049         6.79643
     2022.52429        -0.56948         6.76953
     2022.52703         0.72452         6.67904
     2022.52977         7.09953         7.00676
     2022.53251        -0.78546         6.79032
     2022.53525        -6.49046         6.78665
     2022.53798        -4.69645         6.97741
     2022.54073        -0.24844         7.46898
     2022.54347        -1.26444         6.75853
     2022.54620        -4.70543         6.78298
     2022.54893         1.24957         6.95785
     2022.55167         1.40458         6.84168
     2022.55441         7.17558         6.85024
     2022.55715         5.42259         7.17918
     2022.55989       -15.68041         7.36015
     2022.56262        -5.62940         6.75853
     2022.56536       -10.40639         6.71084
     2022.56810        -5.01339         6.71084
     2022.57083        -3.83739         7.47143
     2022.57377        10.78770        10.50402
     2022.57579        -8.49756        10.99560
     2022.57869         8.50750        10.55783
     2022.58186         2.11967         7.14005
     2022.58453         4.00765         7.07768
     2022.58726        -2.75135         6.87714
     2022.59000         7.61166         6.96885
     2022.59274        -5.38434         6.67782
     2022.59548        -2.50533         6.68393
     2022.59822        -9.12332         6.63135
     2022.60095        -6.14732         6.72062
     2022.60369        -5.83931         6.97130
     2022.60643         9.09469         6.98475
     2022.60917        -1.58130         6.96641
     2022.61190         6.67371         6.99208
     2022.61464         6.97271         6.83679
     2022.61739         9.82972         6.70594
     2022.62012        -0.80628         6.67537
     2022.62286         3.73073         6.79154
     2022.62559         3.34973         6.55554
     2022.62833         1.22574         6.71817
     2022.63107         3.66075         7.13760
     2022.63382         5.20176         7.37605
     2022.63655         0.47376         7.39072
     2022.63929         8.12777         6.99698
     2022.64202         4.99077         7.21586
     2022.64476         6.89878         7.12782
     2022.64750         9.50978         6.84657
     2022.65023         2.16979         6.93339
     2022.65297        11.09479         6.94439
     2022.65571        10.61380         6.86613
     2022.65845         7.67881         6.88448
     2022.66119         7.84481         6.60078
     2022.66392         8.81082         6.69127
     2022.66666        11.29882         6.76097
     2022.66940        10.78183         7.12293
     2022.67191        -0.30925        11.48350
     2022.67441         0.93467         9.71041
     2022.67773         2.58989         8.02904
     2022.68035         9.13285         6.67660
     2022.68309         4.81086         6.89304
     2022.68583         9.37686         6.91138
     2022.68856        12.43987         6.77687
     2022.69130         9.87588         6.69494
     2022.69404        10.01988         6.74018
     2022.69678         5.84289         6.86858
     2022.69952         3.58789         6.80499
     2022.70225        12.30090         6.86491
     2022.70499         9.80690         6.89548
     2022.70773         7.52391         6.81233
     2022.71047         8.04792         6.67904
     2022.71321        11.11392         6.75730
     2022.71868        10.64893         6.65703
     2022.72142        13.85294         6.69983
     2022.72416         7.59395         6.78421
     2022.72689        17.43495         6.79276
     2022.72963        10.55096         7.01287
     2022.73238         8.46796         6.59711
     2022.73511         9.57297         6.69494
     2022.73785        11.17697         6.64603
     2022.74058        15.63298         6.95540
     2022.74332        13.02399         7.03366
     2022.74606         8.61499         6.78298
     2022.74880         2.95300         6.70717
