# ================= DQRFIT RESULTS ================
# INPUT FILE: series/HOTS.rad
# OUTPUT: LDETRENDED
# FILTER FUNCTION: f(t)
# f(t)=+line(t)+annual(t)
# line(t)=+P 1+P 2*t
# annual(t)=+P 3*sin(2*pi*t+P 4)
# heav(t)=(t<0?0:1)
# TOTAL OBSERVATIONS MTOT=  466
# INITIAL TIME INTERVAL= 2017.5852 - 2011.4935 =  6.0917
# TOTAL OBSERVATIONS AFTER PREFILTER M=  466
# TIME-SPAN= 2017.5852 - 2011.4935 =  6.0917
# OBSERVATIONS: USED M=   466 REJECTED MTOT-M=     0 %USED=  100.0000
# N=  4 PARAMETERS
# MAXSIG= 175.00000
# MAXRES=  21.76023
# SCALE FACTOR FOR LENGTHS: SCL=  10.00000
# SCALE FACTOR FOR SIGMAS: SCLSIG=   1.00000
# CHI^2=    802.231 DOF=   462 CHI^2/DOF=   1.73643
# RMS=      7.360 SDEV=      7.367 MEAN=    0.08235
#  P #       PARAMETER +-    SIGMA %error PARAMETER NAME
# P 1 =      5262.91778 +-  352.789   6.70 YZERO                              
# P 2 =        -2.61143 +-    0.175   6.70 SLOPE                              
# P 3 =         4.82645 +-    0.596  12.35 ANNUAL AMPLITUDE                   
# P 4 =         1.55718 +-    0.002   0.12 ANNUAL PHASE                       
#       T            LDETRENDED       SIG_OBS
     2011.49350       -21.52752         7.34111
     2011.49624       -14.90637         7.35824
     2011.49898       -12.99322         7.43599
     2011.50172       -16.50208         7.37274
     2011.50445       -14.11493         7.35297
     2011.50719       -20.98078         7.36615
     2011.50993       -17.21763         7.40832
     2011.51267       -15.00248         7.46762
     2011.51541       -17.08233         7.38723
     2011.51814        -9.97018         7.37142
     2011.52088       -13.95003         7.31608
     2011.52362       -14.87588         7.30422
     2011.52636       -18.31273         7.31081
     2011.52909       -12.21758         7.37406
     2011.53183       -11.40943         7.31344
     2011.53457       -16.79028         7.28840
     2011.53731       -14.06013         7.30290
     2011.54005       -16.44398         7.25546
     2011.54278       -16.91283         7.38196
     2011.54552       -13.64768         7.35165
     2011.54826       -12.51253         7.31212
     2011.55100       -11.52838         7.32662
     2011.55374       -11.81523         7.33584
     2011.55647       -11.89408         7.33452
     2011.55921       -15.64093         7.27523
     2011.56195       -12.78578         7.40700
     2011.56469        -7.00363         7.37010
     2011.56742        -6.43448         7.29631
     2011.57016       -13.24333         7.45576
     2011.57290       -14.91318         7.32662
     2011.57564       -11.85703         7.30026
     2011.57838        -9.54188         7.53746
     2011.58111       -19.77273         7.45971
     2011.58385       -18.22558         7.36351
     2011.58659        -7.94743         7.66659
     2011.58933       -11.63428         7.40436
     2011.59206       -11.55013         7.30422
     2011.59480       -15.65798         7.28313
     2011.59754       -12.83384         7.34507
     2011.60028       -11.29269         7.30553
     2011.60302        -6.66754         7.35297
     2011.60575       -11.81439         7.31081
     2011.60849        -7.74824         7.75225
     2011.61123       -11.42509         7.76806
     2011.61397       -15.28494         7.64815
     2011.61671        -9.28479         7.59939
     2011.61944        -8.13664         7.75225
     2011.62218       -12.84849         7.52428
     2011.62492       -15.20434         7.45971
     2011.62766       -13.53419         7.38592
     2011.63039       -11.02204         7.35297
     2011.63313        -9.25789         7.37669
     2011.63587       -13.74674         7.38196
     2011.63861       -12.37959         7.33189
     2012.49008        -0.10303         7.18298
     2012.49282        -1.13888         7.18035
     2012.49556        -0.07873         7.17112
     2012.49829         3.13042         7.20670
     2012.50103         8.70957         7.22779
     2012.50377         2.99472         7.25941
     2012.50651         2.41087         7.21725
     2012.50924         5.26702         7.34375
     2012.51198         1.46017         7.37801
     2012.51472        -2.14368         7.24492
     2012.51746        -2.41753         7.23701
     2012.52020        -0.75338         7.19484
     2012.52293         1.91977         7.17244
     2012.52567         0.45492         7.23569
     2012.52841         1.09007         7.20802
     2012.53115        -0.19378         7.31871
     2012.53389         0.47637         7.25414
     2012.53662         2.50452         7.13423
     2012.53936         1.91267         7.23174
     2012.54210         6.28682         7.17508
     2012.54484         4.54197         7.16322
     2012.54757         0.59212         7.28050
     2012.55031         3.13627         7.19221
     2012.55305         0.17541         7.16454
     2012.55579        -1.52144         7.20934
     2012.55853         1.71571         7.27786
     2012.56126        -1.06014         7.33189
     2012.56400         0.76701         7.36879
     2012.56674         0.07616         7.15004
     2012.56948         4.28431         7.19616
     2012.57222         1.15946         7.19221
     2012.57495        -2.98139         7.20143
     2012.57769        -3.94824         7.22252
     2012.58043         3.56291         7.19353
     2012.58317        -1.10294         7.19748
     2012.58590         0.84121         7.21725
     2012.58864         1.35936         7.23042
     2012.59138         1.66451         7.18035
     2012.59412         2.00766         7.38065
     2012.59686        -1.99319         7.18167
     2012.59959         0.37096         7.26337
     2012.60198        -5.46181         8.78535
     2013.31144        -1.66111         7.27918
     2013.31417         3.19104         7.33321
     2013.31691         1.79218         7.31871
     2013.31965        -4.05567         7.33452
     2013.32239        -0.37652         7.34770
     2013.32512         3.59863         7.31476
     2013.32786        -1.59622         7.32662
     2013.33060        -0.45907         7.35429
     2013.33334        -3.68192         7.27786
     2013.37167        -0.06382         7.30290
     2013.37441         0.80633         7.28445
     2013.37714         3.47048         7.34770
     2013.37988         0.21663         7.32398
     2013.41821         5.07872         7.30817
     2013.42095         9.72987         7.38723
     2013.42369         4.78802         7.35429
     2013.42643         0.61517         7.33980
     2015.11568         9.03555         7.40568
     2015.11842         6.16770         7.41095
     2015.12115        10.99985         7.43204
     2015.12389         8.77900         7.43731
     2015.12663         7.77715         7.46762
     2015.12937         9.87730         7.42677
     2015.13211        10.43744         7.38723
     2015.13484         9.25159         7.60466
     2015.13758        13.21274         7.57567
     2015.14032        13.50889         7.50056
     2015.14306         8.98404         7.41886
     2015.14580         9.56719         7.49397
     2015.14853        13.60334         7.49661
     2015.15127        10.62549         7.35693
     2015.15401        11.87464         7.40173
     2015.15675        13.61279         7.50319
     2015.15948        15.58694         7.44785
     2015.16222        10.72909         8.28725
     2015.16496        15.10824         7.49002
     2015.16770        14.57339         7.37669
     2015.17044        10.22554         7.43599
     2015.17317         7.48969         7.63365
     2015.17591         8.53784         7.55327
     2015.17865        12.14199         7.33189
     2015.18139        15.23814         7.36615
     2015.18413        15.70629         7.48475
     2015.18686        11.28944         7.60466
     2015.18960        12.37959         7.40964
     2015.19234         7.89774         8.09749
     2015.19508        12.64189         7.70481
     2015.19781        10.86204         7.47552
     2015.20055        11.31219         7.48738
     2015.20329         6.72734         7.45576
     2015.20603         5.90449         7.43335
     2015.20877         8.33264         7.51242
     2015.21150         9.05779         7.43599
     2015.21424         8.88094         7.37274
     2015.21698         9.26309         7.42808
     2015.21972         6.11624         7.54009
     2015.22246        12.49939         7.38592
     2015.22519        17.77754         7.42413
     2015.22793         6.66668         8.61009
     2015.23067         9.94783         7.53087
     2015.23341        12.63198         7.71008
     2015.23614        14.51613         7.66001
     2015.23888        10.61828         7.60730
     2015.24162        10.60443         7.59280
     2015.24436        14.37058         7.66659
     2015.24710        12.35673         7.32266
     2015.24983        12.16388         7.37010
     2015.25257        11.07103         7.32794
     2015.25531        13.37918         7.43994
     2015.25805        13.97633         7.41227
     2015.26079        17.45348         7.36351
     2015.26352        17.68663         7.35034
     2015.26626        13.22978         7.29895
     2015.26900        11.58493         7.72853
     2015.27172        18.46204         7.96177
     2015.27448        17.67624         8.12385
     2015.27720        15.03534         8.10540
     2015.27995        11.45253         8.22136
     2015.28269        20.83868         7.70349
     2015.28543        12.51783         8.33996
     2015.28806        10.19172         8.31887
     2016.61055        -1.15771         7.20802
     2016.61328        -1.26556         7.19748
     2016.61602        -0.00241         7.22779
     2016.61876        -0.87226         7.19221
     2016.62150         2.02989         7.26468
     2016.62423         1.95404         7.32530
     2016.62697        -0.82481         7.31739
     2016.62971        -2.97066         7.18562
     2016.63245        -2.79951         7.34638
     2016.63519         2.71864         7.20012
     2016.63792         6.59979         7.22647
     2016.64066         9.10394         7.16322
     2016.64340         0.64109         7.22515
     2016.64614         1.60924         7.16190
     2016.64888         0.92039         7.20143
     2016.65161         4.14954         7.33452
     2016.65435        -2.63431         7.23701
     2016.65709        -0.69116         7.19221
     2016.65983        -4.00801         7.23569
     2016.66256        -3.71087         7.22120
     2016.66530        -3.38672         7.20407
     2016.66804         3.71443         7.28181
     2016.67078         1.75858         7.45707
     2016.67352         7.39573         7.22252
     2016.67625         4.67688         7.20802
     2016.67899         7.50003         7.13423
     2016.68173         6.53218         7.14213
     2016.68447         7.34433         7.49134
     2016.68721        -4.20552         7.67450
     2016.68994         1.77063         7.37669
     2016.69268        -0.44622         7.12500
     2016.69542         2.15093         7.16058
     2016.69816         4.35108         7.20407
     2016.70089         7.52923         7.24887
     2016.70363         2.33438         7.54141
     2016.70637         1.13753         7.68636
     2016.70911        -3.32832         7.55722
     2016.71185         3.96683         7.19748
     2016.71458         8.12698         7.26337
     2016.71732        11.67113         7.23569
     2016.72006         4.42228         7.23965
     2016.72280         6.26043         7.22911
     2016.72554         8.86358         7.44258
     2016.72827        -1.82727         7.36088
     2016.73101        -0.91012         7.22647
     2016.73375        -1.05797         7.18035
     2016.73649         0.71218         7.21988
     2016.73922         1.06133         7.13818
     2016.74196        -1.35852         7.13555
     2016.74470        -0.97637         7.18430
     2016.74744         3.50478         7.23042
     2016.75018         2.36993         7.26337
     2016.75291         3.56308         7.24097
     2016.75565         3.30223         7.18694
     2016.75839         6.09437         7.21066
     2016.76113         6.99652         7.22252
     2016.76387         6.09867         7.17508
     2016.76660         0.68482         7.22120
     2016.76934         3.67797         7.19221
     2016.77208         1.08812         7.21066
     2016.77482         3.86527         7.21197
     2016.77755        -0.32358         7.27391
     2016.78029         1.90657         7.27391
     2016.78303        -0.40228         7.24624
     2016.78577         9.11887         7.29763
     2016.78851         6.53702         7.36088
     2016.79124         5.31617         7.33189
     2016.79398         2.09032         7.30290
     2016.79672        -0.30553         7.30685
     2016.79946        -3.95838         7.23306
     2016.80220         2.06277         7.20143
     2016.80493         3.26892         7.21461
     2016.80767         6.35607         7.25546
     2016.81041         1.25622         7.19484
     2016.81315         0.95637         7.36220
     2016.81588        -0.73348         7.26864
     2016.81862        -2.63533         7.18298
     2016.82136         0.78282         7.26337
     2016.82410        -7.07603         7.24624
     2016.82684        -3.39588         7.19616
     2016.82957        -0.35873         7.19880
     2016.83231         4.25442         7.33848
     2016.83505       -15.93543         7.22383
     2016.83779        -4.66628         7.16981
     2016.84052        -2.36513         7.16322
     2016.84326        -3.81198         7.15531
     2016.84600         0.08517         7.18694
     2016.84874         4.14532         7.18562
     2016.85148        -1.60553         7.19221
     2016.85421         0.05661         7.25151
     2016.85695         0.95176         7.23306
     2016.85969         0.44191         7.36483
     2016.86243        -0.64594         7.21856
     2016.86517         6.12521         7.25151
     2016.87064         3.51251         7.23174
     2016.87338         7.11266         7.21066
     2016.87612        -2.66819         7.29499
     2016.87885         1.69096         7.17508
     2016.88159        -5.67589         7.17903
     2016.88433        -0.76674         7.23306
     2016.88707         4.06241         7.27786
     2016.88981        -1.15444         7.23174
     2016.89254         1.55371         7.20012
     2016.89528        -1.37114         7.21856
     2016.89802         0.13101         7.18298
     2016.90076        -1.02084         7.19880
     2016.90350         4.31531         7.43072
     2016.90623         8.47146         7.38328
     2016.90897         8.70061         7.16454
     2016.91171        -0.04324         7.15795
     2016.91445         4.80391         7.18298
     2016.91992        -1.37279         8.97642
     2016.92266        -1.67864         7.18035
     2016.92540        -0.96249         7.16849
     2016.96373         1.57060         7.65473
     2016.96647        -0.43925         7.25282
     2016.97468         3.35920         7.20275
     2016.97742         3.92635         7.26732
     2017.11705       -10.72901         7.26468
     2017.11979        -9.46286         7.27127
     2017.12252        -8.83071         7.29499
     2017.12526        -4.60756         7.19748
     2017.12800        -7.88241         7.36483
     2017.13074         0.14074         7.20275
     2017.13347        -5.00811         7.24360
     2017.13621        -0.97296         7.23042
     2017.13895        -0.67981         7.25019
     2017.14169        -3.02767         7.24492
     2017.14443        -7.72852         7.18562
     2017.14990        -7.04422         7.55986
     2017.15264        -3.27007         7.21066
     2017.15538        -2.35092         7.24228
     2017.15812        -0.13177         7.32662
     2017.16085        -1.43262         7.17112
     2017.16359        -9.37647         7.17244
     2017.16633        -7.71032         7.20012
     2017.16907        -6.03917         7.23438
     2017.17180        -4.84202         7.26864
     2017.17454        -1.75187         7.28181
     2017.17728        -2.51072         7.31476
     2017.18002        -5.53757         7.15663
     2017.18276        -6.92142         7.27918
     2017.18549       -12.15927         7.21593
     2017.18823       -12.74012         7.25151
     2017.19097        -9.91697         7.17903
     2017.19371        -4.66682         7.26996
     2017.19645        -4.21867         7.16190
     2017.19918        -6.68252         7.24887
     2017.20192        -4.44737         7.25019
     2017.20466        -3.99522         7.42677
     2017.20740        -7.13307         7.22515
     2017.21013        -2.62792         7.21461
     2017.21287        -4.14477         7.26996
     2017.21561        -3.89662         7.27918
     2017.21835        -9.03147         7.30949
     2017.22109        -0.58332         7.30158
     2017.22382        -2.18117         7.38065
     2017.22656        -3.31002         7.35956
     2017.22930        -8.43887         7.22120
     2017.23204        -0.66972         7.29763
     2017.23478        -6.53958         7.24755
     2017.23751        -3.55143         7.19880
     2017.24025        -3.49128         7.16717
     2017.24299        -5.85713         7.33057
     2017.24573        -0.18998         7.22515
     2017.24846        -5.78983         7.23042
     2017.25120        -6.40368         7.29367
     2017.25394        -1.58553         7.17112
     2017.25668        -5.66338         7.18562
     2017.25942        -7.83523         7.26468
     2017.26215        -1.48408         7.25414
     2017.26489        -1.88693         7.28577
     2017.26763        -4.20378         7.21856
     2017.27037        -1.70163         7.20407
     2017.27311        -8.42448         7.29104
     2017.27584        -7.54833         7.27391
     2017.27858        -6.84518         7.25678
     2017.28132       -13.61103         7.34243
     2017.28406       -10.58088         7.20012
     2017.28679        -8.55973         7.20539
     2017.28953        -5.23558         7.22647
     2017.29227        -6.68943         7.35429
     2017.29501       -10.01028         7.17640
     2017.29775        -7.01013         7.23965
     2017.30048        -6.55098         7.26996
     2017.30322       -11.53683         7.26732
     2017.30596       -10.60068         7.23042
     2017.30870        -8.80753         7.24887
     2017.31144       -12.67138         7.24360
     2017.31417       -13.24323         7.20143
     2017.31691        -5.09308         7.30553
     2017.31965        -7.54193         7.59939
     2017.32239       -10.64578         7.38723
     2017.32512        -7.74363         7.19221
     2017.32786        -8.78948         7.20143
     2017.33060        -7.46334         7.22515
     2017.33334       -11.63919         7.25810
     2017.33608       -10.22504         7.17903
     2017.33881       -11.68589         7.14609
     2017.34155        -7.68874         7.46234
     2017.34429        -4.74859         7.28577
     2017.34703        -8.21744         7.29236
     2017.34977        -9.23329         7.19089
     2017.35250        -9.66814         7.15531
     2017.35524        -8.89399         7.16190
     2017.35798       -15.50584         7.30949
     2017.36072        -9.13369         7.23833
     2017.36345        -7.44254         7.23438
     2017.36619        -7.27339         7.16322
     2017.36893        -2.80924         7.14345
     2017.37167        -5.22409         7.22515
     2017.37441         0.71206         7.25678
     2017.37714        -4.12979         7.38460
     2017.37988       -11.03764         7.24887
     2017.38262        -7.55249         7.20934
     2017.38536       -12.31434         7.24755
     2017.38810        -7.72719         7.22383
     2017.39083        -6.54704         7.28050
     2017.39357        -4.05389         7.33716
     2017.39631        -8.97174         7.30422
     2017.39905        -6.74459         7.21988
     2017.40178        -5.72744         7.18298
     2017.40452        -6.40029         7.19089
     2017.40726        -3.06914         7.26864
     2017.41000        -5.54599         7.28840
     2017.41274        -7.33384         7.18298
     2017.41547        -6.72269         7.21066
     2017.41821        -4.91554         7.36220
     2017.42095        -7.71939         7.23701
     2017.42369        -8.16124         7.30026
     2017.42643        -4.49810         7.29236
     2017.42916        -2.30795         7.21988
     2017.43190        -1.34180         7.33584
     2017.43464        -6.50165         7.33452
     2017.43738        -0.85650         7.50978
     2017.44011        13.70965         7.42940
     2017.44285         4.88080         7.23833
     2017.44559       -27.49905         7.50451
     2017.44833        -2.72290         7.21988
     2017.45107         3.46125         7.20802
     2017.45380         1.58840         7.38723
     2017.45654       -14.07345         7.43204
     2017.45928         0.34770         7.21988
     2017.46202        -2.82515         7.20143
     2017.46475        -5.79400         7.24360
     2017.46749         1.78315         7.46103
     2017.47023        -2.85770         7.39514
     2017.47297        -3.37155         7.26600
     2017.47571        -4.93540         7.17903
     2017.47844        -6.87225         7.23701
     2017.48118        -4.81410         7.27523
     2017.48392        -2.42095         7.22515
     2017.48666        -0.66480         7.23306
     2017.48940        -2.78665         7.23042
     2017.49213        -2.08850         7.25810
     2017.49487        -5.46535         7.39646
     2017.49761        -5.40420         7.27786
     2017.50035        -1.33705         7.22779
     2017.50308         1.25910         7.28972
     2017.50582        -4.51375         7.26996
     2017.50856        -4.16260         7.24624
     2017.51130        -6.12945         7.36483
     2017.51404        -6.09730         7.34507
     2017.51677        -7.00215         7.26864
     2017.51951        -6.49400         7.39250
     2017.52225         6.47814         7.40700
     2017.52499        -1.94771         7.30290
     2017.52773        -4.13256         7.47157
     2017.53046        -3.86841         7.31871
     2017.53320        -3.57026         7.27391
     2017.53594        -3.49211         7.31608
     2017.53868         1.67704         7.29763
     2017.54141         9.20619         7.28972
     2017.54415        -4.71566         7.33321
     2017.54689         0.13749         7.25810
     2017.54963        -7.25836         7.23438
     2017.55237        -4.41521         7.31739
     2017.55510         1.25794         7.23701
     2017.55784        -2.11491         7.25941
     2017.56058        -4.11076         7.35693
     2017.56332        -4.40961         7.31476
     2017.56606        -1.06146         7.41622
     2017.56879        -0.65631         7.45312
     2017.57153         2.43384         7.27918
     2017.57427        -3.03001         7.31608
     2017.57701        -4.48086         7.24228
     2017.57974        -4.07371         7.28313
     2017.58248        -3.71356         7.26337
     2017.58522        -7.32241         7.27259
