# ================= DQRFIT RESULTS ================
# INPUT FILE: series/HWKB.rad
# OUTPUT: LDETRENDED
# FILTER FUNCTION: f(t)
# f(t)=+line(t)+annual(t)
# line(t)=+P 1+P 2*t
# annual(t)=+P 3*sin(2*pi*t+P 4)
# heav(t)=(t<0?0:1)
# TOTAL OBSERVATIONS MTOT=  590
# INITIAL TIME INTERVAL= 2018.6114 - 2015.7700 =  2.8414
# TOTAL OBSERVATIONS AFTER PREFILTER M=  587
# TIME-SPAN= 2018.6114 - 2015.7700 =  2.8414
# OBSERVATIONS: USED M=   587 REJECTED MTOT-M=     3 %USED=   99.4915
# N=  4 PARAMETERS
# MAXSIG= 175.00000
# MAXRES=  17.79268
# SCALE FACTOR FOR LENGTHS: SCL=  10.00000
# SCALE FACTOR FOR SIGMAS: SCLSIG=   1.00000
# CHI^2=    354.787 DOF=   583 CHI^2/DOF=   0.60855
# RMS=      4.379 SDEV=      4.383 MEAN=   -0.00070
#  P #       PARAMETER +-    SIGMA %error PARAMETER NAME
# P 1 =     -1741.28766 +-  593.618  34.09 YZERO                              
# P 2 =         0.86359 +-    0.294  34.08 SLOPE                              
# P 3 =         6.97909 +-    0.270   3.86 ANNUAL AMPLITUDE                   
# P 4 =         3.08920 +-    0.055   1.77 ANNUAL PHASE                       
#       T            LDETRENDED       SIG_OBS
     2015.77002         3.07709         4.06041
     2016.19164        -3.25802         4.07368
     2016.19438         0.78962         4.10020
     2016.19712        -7.32475         4.11970
     2016.19986         0.10189         4.22580
     2016.20260        -5.42148         4.44110
     2016.22449        -7.85839         6.11988
     2016.22724        -7.70076        10.10072
     2016.23545        -6.12285         4.02765
     2016.23819        -6.29721         4.18367
     2016.24093        -5.05858         4.18523
     2016.24366        -7.30294         4.09162
     2016.24640        -4.24031         4.04637
     2016.24914        -4.42367         4.05495
     2016.25188        -4.80304         4.10176
     2016.25462        -6.13840         4.05183
     2016.25735        -6.88577         4.10644
     2016.26009       -14.87913         8.33146
     2016.26283        -8.64349         4.11190
     2016.26557        -7.41786         4.06587
     2016.26830        -4.56022         4.08148
     2016.27104        -6.92759         4.07992
     2016.27378        -5.60695         4.08148
     2016.27652        -7.21532         4.09084
     2016.27926        -5.19768         4.05495
     2016.28199        -5.87304         4.12204
     2016.28473        -5.70541        10.60856
     2016.28747        -8.23877         4.08382
     2016.29021       -11.34714         4.14310
     2016.29295       -10.17750         4.08616
     2016.29568        -9.66787         4.19927
     2016.29842        -9.21123         4.23516
     2016.30116        -7.13960         4.17821
     2016.30390       -10.70996         4.12516
     2016.30663         1.99268         4.14857
     2016.30937        -5.96769         4.09552
     2016.31211        -9.19705         4.06978
     2016.31485        -8.66642         4.06744
     2016.31759        -4.57678         4.06431
     2016.32032        -7.64415         4.09630
     2016.32306       -11.27351         4.28040
     2016.32580        -6.37187         4.06197
     2016.32854       -11.93324         4.09006
     2016.33128        -7.26260         4.23282
     2016.33401        -2.57597         4.19849
     2016.33675        -3.59533         4.18055
     2016.33949        -3.05270         4.15949
     2016.34223        -6.09806         4.20551
     2016.34496        -7.17643         4.25310
     2016.34770        -2.86779         4.19927
     2016.35044        -1.38415         4.24140
     2016.35318       -12.87552         4.14076
     2016.35592       -10.21588         4.14076
     2016.35865       -20.02025         4.14388
     2016.36139       -17.34761         4.16027
     2016.36413        -5.44798         4.13140
     2016.36687         0.12966         4.07368
     2016.36961         6.76230         4.09474
     2016.37234         4.21893         4.10098
     2016.37508        -3.87643         4.19927
     2016.37782       -10.79880         4.13764
     2016.38056        -6.76016         4.15247
     2016.38329        -5.65053         4.09318
     2016.38603        -1.93989         4.13062
     2016.38877         6.72374         4.09006
     2016.39151        -1.83962         4.05105
     2016.39425        -1.56298         4.20629
     2016.39698         6.97465         4.12672
     2016.39972         6.90029         4.13686
     2016.40246        -1.00008         4.13218
     2016.40520        -1.89244         4.06587
     2016.40794        -2.14181         4.07992
     2016.41067        -6.77417         4.05729
     2016.41341        -5.21053         4.09162
     2016.41615        -1.25790         4.09864
     2016.41889        -4.33026         4.05885
     2016.42162         3.60437         4.28040
     2016.42436        -7.90099         4.10722
     2016.42710        -1.93936         4.13374
     2016.42984        -2.47572         4.12906
     2016.43258         0.70591         4.09240
     2016.43531         4.91655         4.09318
     2016.43805         3.10219         4.07602
     2016.44079        -2.10418         4.07680
     2016.44353        -1.01154         4.10020
     2016.44626        -0.60791         4.13920
     2016.44900         2.66073         4.08382
     2016.45174         2.99436         4.07290
     2016.45448         1.36000         4.06353
     2016.45722         3.37264         4.03701
     2016.45995         1.80327         4.07992
     2016.46269        -2.46909         4.24452
     2016.46543         2.37354         4.08148
     2016.46817        -1.39182         4.05339
     2016.47091         0.86681         4.12360
     2016.47364         2.43745         4.05417
     2016.47638         0.94308         4.10098
     2016.47912         0.02572         4.17587
     2016.48186         1.36636         4.13140
     2016.48459        -0.40101         4.06666
     2016.48733        -3.32437         4.07914
     2016.49007         0.49726         4.25700
     2016.49281        -1.23810         4.09006
     2016.49555         0.55553         4.12282
     2016.49828        -3.17083         4.16807
     2016.50102        -0.87019         4.07524
     2016.50376         1.04644         4.19069
     2016.50650         4.64808         4.16963
     2016.50924         3.29271         4.14544
     2016.51197        -1.53565         4.15715
     2016.51471         4.04598         4.05885
     2016.51745         5.26262         4.22970
     2016.52019        -1.30675         4.06666
     2016.52292        -0.10911         4.15793
     2016.52566         2.16453         4.13842
     2016.52840         1.65616         4.19849
     2016.53114        -2.08620         4.08616
     2016.53388         0.80443         4.10800
     2016.53661        -1.37993         4.12126
     2016.53935        -0.23830         4.14701
     2016.54209         5.15234         4.24296
     2016.54483         5.55797         4.11346
     2016.54757         5.05361         4.11190
     2016.55030         5.39525         4.22111
     2016.55304         5.65788         4.13296
     2016.55578         1.97752         4.27416
     2016.55852         4.44015         4.25700
     2016.56125         3.44279         4.19849
     2016.56399         1.68242         4.09396
     2016.56673         3.45206         4.16027
     2016.56947        -2.19530         4.21097
     2016.57221        -1.17367         4.17821
     2016.57494        -0.62103         4.16807
     2016.57768         5.23160         4.09786
     2016.58042         3.62624         4.07680
     2016.58316         2.78987         4.10020
     2016.58590         0.41151         4.19381
     2016.58863         4.74614         4.25622
     2016.59137         1.71478         4.14154
     2016.59411         9.87742         4.10800
     2016.59685         6.72505         4.13920
     2016.59958         3.07969         4.15169
     2016.60232         7.79932         4.16495
     2016.60506        -6.46904         4.21565
     2016.60780        -1.12141         4.10020
     2016.61054         3.95523         4.17197
     2016.61327        -0.63113         4.11658
     2016.61601         2.89150         4.20395
     2016.61875         5.12314         4.17197
     2016.62149         4.13277         4.11658
     2016.62423         5.92041         4.19225
     2016.62696         3.65404         4.10410
     2016.62970         4.65868         4.20551
     2016.63244        -2.77169         4.34047
     2016.63518         8.78795         4.21097
     2016.63791        13.74659         5.28673
     2016.64064        13.38723         5.76259
     2016.64338        -0.75513        14.02852
     2016.64612         0.68250         9.04213
     2016.64886         0.25714        11.02280
     2016.65160         6.73076         4.22736
     2016.65434         5.74540         4.24608
     2016.65707        12.00904        11.18818
     2016.65981         3.01168        14.40218
     2016.66255         2.37631        11.13201
     2016.66528         0.73295        14.13695
     2016.66802         7.20659        10.73728
     2016.67076         7.95522        10.88472
     2016.67350         4.87786        13.69307
     2016.67623         5.56949        13.67435
     2016.67897         9.42713        13.64705
     2016.68445         6.18940         7.80333
     2016.68720         8.80502        10.44942
     2016.68993         8.05766         4.24218
     2016.69267         7.57030         4.12906
     2016.69541         7.71393         4.08460
     2016.69815         4.18757         4.09552
     2016.70089         7.45721         4.19693
     2016.70362         6.14284         4.42316
     2016.70636         9.38548         4.39040
     2016.70910         5.91711         4.32097
     2016.71184        11.05075         4.27884
     2016.71457        11.62238         4.24686
     2016.71731        12.84002         4.10878
     2016.72005         6.77465         4.09240
     2016.72279         8.43929         4.10800
     2016.72553         8.93193         4.19537
     2016.72826         7.53356         4.32877
     2016.73100         6.22920         4.08538
     2016.73374         5.60683         4.17275
     2016.73648         8.12447         5.15255
     2016.73921         9.87310         4.09864
     2016.74195         0.17874         4.17899
     2016.74469         5.22538         4.14310
     2016.74743         1.54901         4.24998
     2016.75017         9.90365         4.15949
     2016.75274         5.67643         4.42784
     2016.75646         8.28521         6.51695
     2016.75838        14.31155         4.10878
     2016.76112         5.42419         4.09630
     2016.76386         6.62882         4.10566
     2016.76659         8.05046         4.09708
     2016.76933        11.23510         4.54096
     2016.77207         9.09273         4.16495
     2016.77481         8.19437         4.10722
     2016.77754         7.45900         4.12984
     2016.78028         2.67264         4.12672
     2016.78302         9.34127         4.23828
     2016.78576         7.82091         4.15013
     2016.78850        11.46154         4.21955
     2016.79124        13.06218         4.21721
     2016.79397         8.73182         4.35295
     2016.79671         7.81845         4.24608
     2016.79945         5.15809         4.13608
     2016.80219         3.43472         4.19615
     2016.80490         9.97238         4.44890
     2016.80767         4.58899         4.95675
     2016.81040         0.01863         4.38260
     2016.81314         2.08126         4.40054
     2016.81588         6.05990         4.31317
     2016.81862         6.28553         4.50039
     2016.82136         3.53217         4.72662
     2016.82409        -0.69020         4.28040
     2016.82681         3.91246         4.57528
     2016.82957         5.75108         4.25388
     2016.83231         5.79271         4.24920
     2016.83504         5.71135         4.27104
     2016.83778         9.53498         5.01135
     2016.84052        -3.04638         4.54642
     2016.84326        -0.00275         4.55890
     2016.84600         1.04989         4.44422
     2016.84873        10.62152         4.24140
     2016.85147         4.20516         4.38416
     2016.85421         0.44380         4.47387
     2016.85693         2.15144         4.48245
     2016.85969         0.31107         4.61975
     2016.86242         6.29470         4.36699
     2016.86516         6.35834         4.24530
     2016.86790         2.00097         4.58074
     2016.87064        10.44661         5.69628
     2016.87337         4.75825         6.07073
     2016.87611         6.03588         4.29678
     2016.87885         4.93752         4.12048
     2016.88159         2.06115         4.35763
     2016.88431         7.32780         4.45592
     2016.88706         8.16242         4.44656
     2016.88980         6.57906         4.34593
     2016.89254         8.23069         4.39742
     2016.89528         8.35933         4.45202
     2016.89802         7.51597         4.52379
     2016.90075         0.02260         4.29756
     2016.90349         7.57724         4.45982
     2016.90623         8.70187         4.37713
     2016.90897         3.94351         4.38338
     2016.91170         5.52614         4.58620
     2016.91444         4.64078         4.23516
     2016.91718         3.22042         4.27884
     2016.91992        -0.18195         5.46615
     2016.92265         5.23369         4.43954
     2016.92539         3.64933         4.22345
     2016.92813         0.03196         4.28118
     2016.93087        -1.94341         4.21097
     2016.93360        -0.51777         4.22892
     2016.93634        -0.64914         4.23750
     2016.93908        -0.07550         4.43252
     2016.94182         4.73814         4.23438
     2016.94456         0.83177         4.13686
     2016.94730         0.53741         4.17119
     2016.95003        -0.41295         4.09864
     2016.95277        -2.20632         4.12828
     2016.95551        -0.41968         4.09630
     2016.95824         3.83395         4.25934
     2016.96099         5.54059         4.23438
     2016.96372         5.14222         4.09396
     2016.96646         6.95486         4.26012
     2016.96964        14.45811         5.17284
     2016.97193         9.19513         5.36552
     2016.97467         2.11577         4.21799
     2016.97741        -2.01060         4.28664
     2016.98015         3.74903         4.32487
     2016.98289         1.91867         4.30849
     2016.98562         5.02031         4.40288
     2016.98838         9.00793         4.72194
     2016.99110        18.54458         4.35373
     2016.99657        16.67585         4.12438
     2017.00205         7.15012         4.14701
     2017.00476         1.12878         4.63613
     2017.00753        -3.83561         4.86236
     2017.01027        -5.23897         4.29210
     2017.01300         4.58267         4.07680
     2017.01574         3.10030         4.07680
     2017.01848        -1.30406         4.10098
     2017.02121         2.03357         4.06353
     2017.02395         2.45521         4.04559
     2017.02669         0.03684         4.13140
     2017.08404       -13.23968         7.63561
     2017.08661        -5.16390         7.16911
     2017.09241        -7.92091         4.12516
     2017.09514        -0.14427         4.09942
     2017.09787        -8.05963         4.06978
     2017.10061        -6.68599         4.04481
     2017.10335        -5.31536         4.12984
     2017.10608        -4.34472         4.65953
     2017.11142         3.42967         4.30849
     2017.13075         1.73298         6.06839
     2017.14993        -0.45958         5.28595
     2017.15263        11.64009        13.27650
     2017.17180         1.09252         4.23516
     2017.17731         1.52577         4.61740
     2017.18003        -1.24058         4.41536
     2017.18822        -5.57165         4.16885
     2017.19096        -7.63102         4.10488
     2017.19301        -1.66379         6.50992
     2017.22646         3.89033         4.36075
     2017.22929        -7.55312         4.90292
     2017.23203        -0.16348         4.19693
     2017.23448        -3.27560         4.80307
     2017.23754        -8.14124         5.28517
     2017.24024       -12.97558         4.23594
     2017.24298       -12.21794         4.09864
     2017.24569        -9.71328         5.72749
     2017.24854       -10.41074         4.84441
     2017.25119       -12.56603         4.09162
     2017.25393       -13.14340         4.10956
     2017.25667        -7.27076         4.15637
     2017.25941       -10.22013         4.20707
     2017.26214        -8.59249         4.07602
     2017.26488        -4.00286         4.11190
     2017.26762        -1.23222         4.20395
     2017.27036        -2.87759         4.19849
     2017.27310       -13.15995         4.08772
     2017.27583       -13.09431         4.08382
     2017.27857       -22.93868         4.10488
     2017.28131       -17.56204         4.21799
     2017.28405       -14.26241         4.12828
     2017.28679       -14.11077         4.06900
     2017.28952       -10.28514         4.08460
     2017.29226        -7.72850         4.06275
     2017.29500       -10.88686         4.14310
     2017.29774        -9.15923         4.15403
     2017.30047       -14.76659         4.31395
     2017.30321        -8.30996         4.11268
     2017.30595       -10.24232         4.12594
     2017.30869        -6.22969         4.10332
     2017.31143       -11.50305         4.08538
     2017.31416       -11.16042         4.15559
     2017.31690        -7.09378         4.07602
     2017.31964        -9.82314         4.39430
     2017.32238       -11.24351         4.24140
     2017.32512        -9.53387         4.28118
     2017.32785        -8.51224         4.29132
     2017.33059       -12.30460         4.25154
     2017.33333       -13.89297         4.06822
     2017.33607       -16.43933         4.17119
     2017.33880       -14.45769         4.09786
     2017.34154        -6.06906         4.20239
     2017.34428       -12.24242         4.05573
     2017.34702        -9.46879         4.05027
     2017.34976        -6.12915         4.66655
     2017.35249        -8.91152         4.08928
     2017.35523       -10.11388         4.07134
     2017.35797       -11.91525         4.10722
     2017.36071        -9.61161         4.32409
     2017.36344        -8.19597         4.19771
     2017.36618        -6.11134         4.18289
     2017.36892        -8.56170         4.61506
     2017.37166        -9.88207         4.12828
     2017.37440        -7.11243         4.05963
     2017.37713        -6.96180         4.12828
     2017.37987        -9.73116         4.28196
     2017.38261        -8.34452         4.10566
     2017.38535        -7.42789         4.11112
     2017.38809        -7.81325         4.09006
     2017.39082        -6.48662         4.17743
     2017.39356        -2.98398         4.11190
     2017.39630        -6.68435         4.20161
     2017.39904        -8.49671         4.07524
     2017.40177        -6.33708         4.12048
     2017.40451        -5.01244         4.30224
     2017.40725        -2.56880         4.09084
     2017.40999        -2.97717         4.20551
     2017.41273        -1.03753         4.11502
     2017.41546        -6.03990         4.15871
     2017.41820        -2.98226         4.16027
     2017.42094        -5.68363         4.41146
     2017.42368        -7.92599         4.07134
     2017.42642        -7.23436         4.05495
     2017.42915        -1.60672         4.22423
     2017.43189        -1.01408         4.11892
     2017.43463        -3.40845         4.05963
     2017.43737         1.01519         4.10020
     2017.44010        -4.18718         4.05729
     2017.44284        -1.26054         4.07758
     2017.44558        -2.32291         4.16807
     2017.44832        -0.50227         4.07602
     2017.45106         2.39037         4.13374
     2017.45379         0.14600         4.22502
     2017.45653         1.70664         4.15403
     2017.45927        -6.83273         4.06587
     2017.46201        -1.22709         4.11112
     2017.46475        -2.58246         4.07992
     2017.46748        -1.49782         4.09708
     2017.47022        -3.28419         4.05573
     2017.47296        -1.14755         4.05651
     2017.47570        -6.43291         4.08382
     2017.47843        -1.52628         4.10800
     2017.48117         0.77436         4.15169
     2017.48391         0.10799         4.09630
     2017.48665         0.35863         4.08616
     2017.48939         3.40126         4.23750
     2017.49212         1.49990         4.23828
     2017.49486        -0.28746         4.22736
     2017.49760        -4.40283         4.21097
     2017.50034         0.96781         4.16651
     2017.50308        -0.36556         4.06587
     2017.50581        -3.32292         4.11658
     2017.50855        -2.27629         4.19615
     2017.51129        -1.68065         4.14154
     2017.51403        -1.01802         4.22423
     2017.51676        -1.59138         4.08382
     2017.51950        -0.13674         4.15169
     2017.52224         1.78889         4.10176
     2017.52498        -0.61847         4.14232
     2017.52772         2.21216         4.19849
     2017.53045         0.54180         4.12126
     2017.53317        -1.70555         4.15481
     2017.53593         0.12307         4.13140
     2017.53867         1.94871         4.11190
     2017.54141         8.05934         4.07134
     2017.54414         4.84098         4.10878
     2017.54688         1.37561         4.18289
     2017.54962        -3.06975         4.11736
     2017.55236         2.53688         4.13062
     2017.55509         8.22152         4.09162
     2017.55783         3.27615         4.05963
     2017.56057        -5.93021         4.08538
     2017.56331        -0.83557         4.10878
     2017.56605         3.31106         4.28820
     2017.56878        -0.41530         4.12048
     2017.57152         5.25633         4.08928
     2017.57426        -1.80203         4.19615
     2017.57700        -3.17140         4.22111
     2017.57974        -5.05776         4.11970
     2017.58247        -0.03112         4.09864
     2017.58521        -1.12649         4.10956
     2017.58795        -4.48885         4.17587
     2017.59069        -5.56622         4.16963
     2017.59342         1.47342         4.09162
     2017.59616         3.75705         4.12828
     2017.59890         1.29269         4.06978
     2017.60164         1.58132         4.10956
     2017.60438         1.34296         4.11892
     2017.60711        -3.64840         4.10410
     2017.60985         1.44823         4.17743
     2017.61259         3.57687         4.13686
     2017.61533         0.25950         4.16027
     2017.61807         6.59514         4.18367
     2017.62080         1.84177         4.13998
     2017.62354         2.01841         4.14544
     2017.62628         7.51405         4.22892
     2017.62902        12.17668         4.29912
     2017.63175         1.26432         4.17275
     2017.63449        -2.07305         4.10176
     2017.63723         0.12359         4.15715
     2017.63997         8.18622         4.26714
     2017.64271         8.85086         4.21331
     2017.64544         4.57449         4.14544
     2017.64818         3.96613         4.29288
     2017.65092        -1.37823         4.10176
     2017.65366        -0.55060         4.12984
     2017.65639         1.99404         4.10878
     2017.65913         0.66367         4.19537
     2017.66187         2.45031         4.17821
     2017.66461         3.49894         4.24140
     2017.66735         8.87258         4.16651
     2017.67008         4.70222         4.08226
     2017.67282         2.81285         4.24140
     2017.67556         1.13649         4.15091
     2017.67830         9.60712         4.12126
     2017.68104         6.13276         4.11268
     2017.68377        13.88039         4.37401
     2017.68652         0.07402         4.40210
     2017.68925         6.89566         4.17353
     2017.69199         7.24330         4.11658
     2017.69472        10.24994         4.25232
     2017.69746         2.09657         4.13686
     2017.70020         2.10521         4.15169
     2017.70294         7.75884         4.16885
     2017.70568         1.40548         4.20785
     2017.70841         4.87411         4.12438
     2017.71178         0.40121        33.85473
     2017.71389         8.25539         4.10722
     2017.71663         6.05902         4.18289
     2017.71937         1.80166         4.12048
     2017.72210         6.09029         4.14779
     2017.72484         2.75393         4.14779
     2017.72758         7.19556         4.14388
     2017.73032         5.30220         4.22033
     2017.73305         3.73283         4.17353
     2017.73579         2.01147         4.23672
     2017.73853         6.20011         4.12906
     2017.74127         7.18674         4.19537
     2017.74401         4.68938         4.09630
     2017.74674         5.72601         4.18913
     2017.74948        -0.19635         4.10254
     2017.75222        -0.02272         4.23360
     2017.75496         2.22792         4.09552
     2017.75770         1.10756         4.15559
     2017.76043         3.78319         4.17587
     2017.76317         6.44283         4.27182
     2017.76591         8.36646         4.10410
     2017.76865         2.83010         4.11112
     2017.77138         3.11273         4.15793
     2017.77412         1.91437         4.11190
     2017.77686         1.47400         4.08070
     2017.77960         0.50264         4.13452
     2017.78234        -0.76972         4.07992
     2017.78507         1.72091         4.13452
     2017.78781         4.39755         4.17431
     2017.79055         2.87118         4.08304
     2017.79329         8.31682         4.15247
     2017.79603        14.49545         4.55032
     2017.79876        14.82209         4.24998
     2017.80150        11.67673         4.34437
     2017.80424        10.34736         4.59010
     2017.80698         8.18500         4.47153
     2017.80955         9.35477         4.42940
     2017.83729        -3.97718         6.89841
     2017.83993         0.72054         5.14007
     2017.84257         4.80326         4.19927
     2017.84531         7.14289         4.90682
     2017.84804         0.37453         4.16573
     2017.85036         8.27253         5.10497
     2017.85372        12.52463         8.78157
     2017.94387         1.11578         4.14154
     2018.04800        -1.17815         4.70400
     2018.05065         1.51057         4.13530
     2018.05338         0.51420         4.12360
     2018.05612         2.11384         4.26246
     2018.05886        -0.47953         4.15481
     2018.06160         4.93711         4.10020
     2018.06433         2.91474         4.26714
     2018.08927        -8.29479         9.59053
     2018.09175        -1.98593         4.72896
     2018.09355        -2.71749         7.91410
     2018.10942       -13.10719        19.32851
     2018.50239        -2.18456         4.05339
     2018.50513         1.87708         4.06666
     2018.50787         4.82172         4.12204
     2018.51060         2.98235         4.09786
     2018.51334         2.56999         4.11346
     2018.51608        -2.45238         4.10332
     2018.51882         2.45626         4.05885
     2018.52156         1.37489         4.15793
     2018.52429        -1.16547         4.08928
     2018.52703         1.86316         4.08850
     2018.52977        -0.10120         4.11112
     2018.53251         3.86244         4.03935
     2018.53525         9.87407         4.18523
     2018.53798         3.72671         4.21409
     2018.54072         4.30234         4.14544
     2018.54346         6.43498         4.09630
     2018.54620         5.25261         4.07758
     2018.54893         4.50225         4.05105
     2018.55167         2.24889         4.12360
     2018.55441         4.36952         4.11892
     2018.55715        10.24716         4.13062
     2018.55989         3.39179         4.23282
     2018.56262         7.32643         4.18757
     2018.56536         2.71906         4.19147
     2018.56810        10.55370         4.27026
     2018.57084         9.56833         4.08460
     2018.57357        11.14097         4.30068
     2018.57631         7.36061         4.21409
     2018.57905         0.45024         4.25622
     2018.58179         5.80588         4.14232
     2018.58453        14.19651         4.20707
     2018.58726         4.85715         4.08382
     2018.59000        11.46678         4.08148
     2018.59274         6.37342         4.07134
     2018.59548        11.54606         4.07368
     2018.59822        11.30469         4.08694
     2018.60095        11.30033         4.10566
     2018.60369         9.51996         4.09708
     2018.60643        10.12460         4.09864
     2018.60917        10.94723         4.06431
     2018.61137        12.92833         5.04412
