# ================= DQRFIT RESULTS ================
# INPUT FILE: series/KAWA.rad
# OUTPUT: LDETRENDED
# FILTER FUNCTION: f(t)
# f(t)=+line(t)
# line(t)=+P 1+P 2*t
# heav(t)=(t<0?0:1)
# TOTAL OBSERVATIONS MTOT=   59
# INITIAL TIME INTERVAL= 2015.2334 - 2015.0719 =  0.1615
# TOTAL OBSERVATIONS AFTER PREFILTER M=   59
# TIME-SPAN= 2015.2334 - 2015.0719 =  0.1615
# OBSERVATIONS: USED M=    59 REJECTED MTOT-M=     0 %USED=  100.0000
# N=  2 PARAMETERS
# MAXSIG= 175.00000
# MAXRES=  19.07915
# SCALE FACTOR FOR LENGTHS: SCL=  10.00000
# SCALE FACTOR FOR SIGMAS: SCLSIG=   1.00000
# CHI^2=    102.997 DOF=    57 CHI^2/DOF=   1.80696
# RMS=      8.371 SDEV=      8.439 MEAN=    0.22840
#  P #       PARAMETER +-    SIGMA %error PARAMETER NAME
# P 1 =   -156842.38843 +- ********  30.21 YZERO                              
# P 2 =        78.29537 +-   23.510  30.03 SLOPE                              
#       T            LDETRENDED       SIG_OBS
     2015.07187        -9.30815        10.95413
     2015.07461         3.08165         7.88217
     2015.07734         5.30745         8.27338
     2015.08008        -4.03314         8.22510
     2015.08282         4.53954         8.06906
     2015.08556         5.97665         8.18333
     2015.08830        -5.77512         8.08517
     2015.09103        -1.16153         8.10241
     2015.09377        -3.84492         7.97265
     2015.09651        -3.25435         8.54258
     2015.09925        -1.00713         8.63403
     2015.10198         0.65056         9.27943
     2015.10472        -1.72799         8.09042
     2015.10746       -15.60592         8.26416
     2015.11020         5.10605         8.41086
     2015.11294         3.02777         8.20024
     2015.11567        -8.75699         8.08222
     2015.11841         2.49524         8.14786
     2015.12115        -3.93345         8.43572
     2015.12389        10.96071         8.52032
     2015.12663        13.17729         8.23639
     2015.12936         1.96208         8.17475
     2015.13210        -8.52902         7.99892
     2015.13484        -1.45626         8.22827
     2015.13758         5.24859         7.92960
     2015.14031         5.15147         8.42006
     2015.14305         6.89594         8.29305
     2015.14579         0.38504         8.36276
     2015.14853         1.75444         7.85673
     2015.15127         3.71992         7.95952
     2015.15400        -0.18257         8.86818
     2015.15674        -3.10582         8.28320
     2015.15948        -9.51923         8.01835
     2015.16222         9.44854         7.96704
     2015.16496         5.13718         8.09289
     2015.16769         8.67082         8.18101
     2015.17043         2.98184         8.12210
     2015.17317       -14.40706         8.17238
     2015.17591       -14.39647         7.96338
     2015.17864       -17.10156         7.98944
     2015.18138        -6.83161         8.44239
     2015.18412       -10.60875         8.07684
     2015.18686         0.46992         8.04446
     2015.18960         7.11242         8.04877
     2015.19233         8.15326         8.37699
     2015.19507         0.09694         8.23505
     2015.19781        -2.77117         7.97758
     2015.20055         7.95989         7.89063
     2015.20329         2.78539         8.04016
     2015.20602        16.87600         8.73895
     2015.20876        19.07915         8.02408
     2015.21150         9.34260         8.12572
     2015.21424         5.17250         8.29872
     2015.21697         2.03808         8.17283
     2015.22245        -4.83588         8.22033
     2015.22519        -5.53867         8.13623
     2015.22793       -17.06109         8.12631
     2015.23066       -14.44559         8.50879
     2015.23340        17.91035        21.73680
