# ================= DQRFIT RESULTS ================
# INPUT FILE: series/MILL.rad
# OUTPUT: LDETRENDED
# FILTER FUNCTION: f(t)
# f(t)=+line(t)
# line(t)=+P 1+P 2*t
# heav(t)=(t<0?0:1)
# TOTAL OBSERVATIONS MTOT=   41
# INITIAL TIME INTERVAL= 2012.4843 - 2012.3751 =  0.1092
# TOTAL OBSERVATIONS AFTER PREFILTER M=   41
# TIME-SPAN= 2012.4843 - 2012.3751 =  0.1092
# OBSERVATIONS: USED M=    41 REJECTED MTOT-M=     0 %USED=  100.0000
# N=  2 PARAMETERS
# MAXSIG= 175.00000
# MAXRES=  14.28340
# SCALE FACTOR FOR LENGTHS: SCL=  10.00000
# SCALE FACTOR FOR SIGMAS: SCLSIG=   1.00000
# CHI^2=     27.732 DOF=    39 CHI^2/DOF=   0.71108
# RMS=      4.747 SDEV=      4.801 MEAN=   -0.21333
#  P #       PARAMETER +-    SIGMA %error PARAMETER NAME
# P 1 =    658549.50000 +- ********   7.12 YZERO                              
# P 2 =        -2.61938 +-   23.314 890.06 SLOPE                              
#       T            LDETRENDED       SIG_OBS
     2012.37509        -2.85335         4.78716
     2012.37783         1.31483         4.83438
     2012.38057        -0.81300         4.82089
     2012.38330        -5.20083         4.78547
     2012.38604         0.83234         4.89594
     2012.38878        -3.58049         4.98279
     2012.39152        11.63468         4.99122
     2012.39426         3.59585         4.83859
     2012.39699        -1.11397         4.77535
     2012.39973         1.94920         4.67247
     2012.40247        -6.22563         4.72560
     2012.40521        -1.85546         4.73656
     2012.40794        -4.47129         4.83016
     2012.41068        -0.75312         4.70705
     2012.41342        -2.72494         4.69693
     2012.41616         4.39323         4.76439
     2012.41890        14.28340         5.06965
     2012.42163         7.57357         4.75933
     2012.42437        -3.00026         4.87232
     2012.42711        -4.18809         4.73487
     2012.42985         0.62808         4.67922
     2012.43259        -4.40874         4.73487
     2012.43532         3.75743         4.83522
     2012.43806        -3.61440         4.79643
     2012.44080        -6.66423         4.67585
     2012.44354        -8.37006         4.71801
     2012.44627        -3.10489         4.69524
     2012.44901         3.78728         4.79053
     2012.45175        -3.56954         4.71379
     2012.45449        -3.63137         4.70283
     2012.45723        -2.68520         4.74837
     2012.45996        -0.73803         4.77366
     2012.46270         5.82114         4.95918
     2012.46544        -1.15769         4.78716
     2012.46818         1.39748         4.70367
     2012.47092        -0.63134         4.76017
     2012.47365        -5.55317         4.78378
     2012.47639         6.63400         4.75680
     2012.47913         0.63217         4.70958
     2012.48187         0.84634         4.70199
     2012.48430         3.08172         5.48959
