# ================= DQRFIT RESULTS ================
# INPUT FILE: series/P814.rad
# OUTPUT: LDETRENDED
# FILTER FUNCTION: f(t)
# f(t)=+line(t)+annual(t)
# line(t)=+P 1+P 2*t
# annual(t)=+P 3*sin(2*pi*t+P 4)
# heav(t)=(t<0?0:1)
# TOTAL OBSERVATIONS MTOT= 2378
# INITIAL TIME INTERVAL= 2020.3039 - 2013.6591 =  6.6448
# TOTAL OBSERVATIONS AFTER PREFILTER M= 2372
# TIME-SPAN= 2020.3039 - 2013.6591 =  6.6448
# OBSERVATIONS: USED M=  2372 REJECTED MTOT-M=     6 %USED=   99.7477
# N=  4 PARAMETERS
# MAXSIG= 175.00000
# MAXRES=  46.91563
# SCALE FACTOR FOR LENGTHS: SCL=  10.00000
# SCALE FACTOR FOR SIGMAS: SCLSIG=   1.00000
# CHI^2=   1510.414 DOF=  2368 CHI^2/DOF=   0.63784
# RMS=      5.259 SDEV=      5.243 MEAN=    0.41966
#  P #       PARAMETER +-    SIGMA %error PARAMETER NAME
# P 1 =      2672.66969 +-  114.933   4.30 YZERO                              
# P 2 =        -1.32635 +-    0.057   4.30 SLOPE                              
# P 3 =         5.27979 +-    0.134   2.55 ANNUAL AMPLITUDE                   
# P 4 =        -2.91874 +-    0.035   1.20 ANNUAL PHASE                       
#       T            LDETRENDED       SIG_OBS
     2013.65913         9.68675         4.40696
     2013.66187        10.79738         4.27358
     2013.66461         5.56401         4.23445
     2013.66735         6.51564         4.27438
     2013.67008         8.46727         4.31911
     2013.67282         9.13691         4.52436
     2013.67556         7.51354         4.37022
     2013.67830        13.73017         4.50519
     2013.68104        13.59480         4.64016
     2013.68377         0.02943         4.23605
     2013.68651         2.24106         4.21368
     2013.68925         9.63169         4.22886
     2013.69199         5.08933         4.22886
     2013.69472         8.98996         4.25202
     2013.69746         6.01459         4.20091
     2013.70020        10.63322         4.22806
     2013.70294        10.61485         4.21768
     2013.70568         9.02048         4.23605
     2013.70841         8.24211         4.35505
     2013.71115         2.54574         4.22167
     2013.71389         5.07638         4.22327
     2013.71663         2.99501         4.23125
     2013.71937         7.02264         4.22327
     2013.72210        11.09027         4.22966
     2013.72484        11.15790         4.21927
     2013.72758         4.38953         4.25921
     2013.73032         7.71916         4.20091
     2013.73305         5.64880         4.22167
     2013.73579         5.10543         4.19132
     2013.73853         4.63306         4.21848
     2013.74127         0.76069         4.19292
     2013.74401         5.80632         4.42373
     2013.74674         7.18395         4.35185
     2013.74948         2.75758         4.22247
     2013.75222        -1.46879         4.26719
     2013.75496        -3.41215         4.18653
     2013.75770        -3.15352         4.19771
     2013.76043        -4.37089         4.23365
     2013.76317         0.10874         4.24244
     2013.76591         7.38037         4.29914
     2013.76865         1.96300         4.24723
     2013.77138         2.64063         4.29115
     2013.77412         7.06627         4.25681
     2013.77686         2.29790         4.26799
     2013.77960         2.64353         4.25921
     2013.78234        -3.95784         4.26640
     2013.78507        -4.85921         4.23445
     2013.78781        -5.74958         4.24563
     2013.79055         0.79405         4.26240
     2013.79329        -3.21132         4.27838
     2013.79603         1.18032         4.23764
     2013.79876        -1.94205         4.22966
     2013.80150         3.41058         4.33827
     2013.80424        -0.02279         4.31911
     2013.80698        -1.21116         4.22886
     2013.80971         0.32447         4.22966
     2013.81245        -0.61890         4.20889
     2013.81519        -6.50126         4.22806
     2013.81793        -6.22363         4.21129
     2013.82067         4.57300         4.29515
     2013.82340         4.17063         4.23445
     2013.82614         5.02526         4.35105
     2013.82888         6.24389         4.27758
     2013.83162         1.12652         4.25521
     2013.83436         2.39415         4.34866
     2013.83709         3.63179         4.32629
     2013.83983         5.90242         4.29914
     2013.84257         1.12605         4.26799
     2013.84531         0.32968         4.35744
     2013.84804        -6.34369         4.23525
     2013.85078        -1.25706         4.22487
     2013.85352         3.13257         4.22886
     2013.85626        -0.02779         4.24483
     2013.85900        -2.68216         4.21209
     2013.86173        -3.70353         4.24084
     2013.86447        -9.25690         4.23285
     2013.86721        -4.86127         4.21688
     2013.86995        -4.30364         4.18972
     2013.87269         4.71499         4.19132
     2013.87542        10.33163         4.23445
     2013.87816         5.68726         4.20410
     2013.88090         5.10589         4.32310
     2013.88364         8.79752         4.43012
     2013.88637        -0.08785         4.22806
     2013.88911        -5.59422         4.22566
     2013.89185       -11.80559         4.19292
     2013.89459        -8.46096         4.20650
     2013.89733         1.75468         4.22646
     2013.90006        -2.05069         4.28157
     2013.90280        -6.84506         4.27598
     2013.90554        -0.86743         4.21209
     2013.90828         0.78120         4.24164
     2013.91102        -1.95017         4.22167
     2013.91375        -3.94954         4.22487
     2013.91649         0.84010         4.20170
     2013.91923         3.90873         4.30952
     2013.92197         0.40036         4.29115
     2013.92470        -1.05501         4.20650
     2013.92744        -0.71338         4.31352
     2013.93018         0.64725         4.20650
     2013.93292        -2.11012         4.20250
     2013.93566        -2.06549         4.21209
     2013.93839        -0.24885         4.20889
     2013.94113        -2.64322         4.18972
     2013.94387        -1.87659         4.18813
     2013.94661        -0.94996         4.25761
     2013.94935        -1.10733         4.20490
     2013.95208        -1.13570         4.21927
     2013.95482        -0.02107         4.19931
     2013.95756         0.80957         4.19771
     2013.96030        -0.73880         4.19771
     2013.96303         0.58483         4.20730
     2013.96577         3.82846         4.21768
     2013.96851         4.16009         4.24483
     2013.97125         6.09472         4.22646
     2013.97399         0.31435         4.22487
     2013.97672        -2.85302         4.27838
     2013.97946        -4.67538         4.20410
     2013.98220        -5.78475         4.25761
     2013.98494        -4.47012         4.19212
     2013.98767        -7.07249         4.22007
     2013.99041        -5.65186         4.28796
     2013.99315        -9.98223         4.21368
     2013.99589        -5.13060         4.24084
     2013.99863        -4.76196         4.25122
     2014.00410        -2.86170         4.24084
     2014.00684        -0.94207         4.29515
     2014.00958         1.95056         4.27278
     2014.01232        -8.64681         4.30074
     2014.01505        -4.79018         4.26799
     2014.01779        -3.86555         4.31112
     2014.02053         0.36609         4.22966
     2014.02327        -4.34028         4.39578
     2014.02600         6.03435         4.36303
     2014.02874         8.04198         4.25841
     2014.03148         9.53861         4.23205
     2014.03422        -3.20476         4.22327
     2014.03696        -5.62613         4.21848
     2014.03969        -4.80549         4.24323
     2014.04243        -3.24786         4.35105
     2014.04517         1.50777         4.33907
     2014.04791        -2.12860         4.22087
     2014.05065        -1.30197         4.25921
     2014.05338        -5.87834         4.21448
     2014.05612        -6.74871         4.20410
     2014.05886        -5.25308         4.24962
     2014.06160        -2.51944         4.20730
     2014.06433        -3.36181         4.34945
     2014.08454         3.16899         9.23241
     2014.08624        -2.12376         4.24643
     2014.08898        -1.54513         4.39977
     2014.09171        -3.03250         4.42293
     2014.09445        -5.05987         4.24164
     2014.09719        -8.14424         4.32310
     2014.09993         0.63339         4.21289
     2014.10266         3.02103         4.32709
     2014.10540         3.49666         4.24323
     2014.10814        -0.16571         4.22646
     2014.11088        -0.35308         4.30713
     2014.11362         0.01455         4.20410
     2014.11635         1.75418         4.20011
     2014.11909         4.85981         4.25601
     2014.12183         3.15345         4.30233
     2014.12457         0.28908         4.25282
     2014.12731         7.41071         4.22247
     2014.13004         8.53334         4.22327
     2014.13278         1.78997         4.35505
     2014.13552         6.79860         4.43890
     2014.13826         2.72923         4.26879
     2014.14099         1.67086         4.22966
     2014.14373         1.70150         4.25362
     2014.14647         1.37613         4.26001
     2014.14921        -2.20424         4.26400
     2014.15195        -3.77361         4.26160
     2014.15468        -1.18798         4.26560
     2014.15742         2.81465         4.27438
     2014.16016         4.71428         4.41814
     2014.16290        -0.05408         4.31352
     2014.16564        -2.15145         4.28956
     2014.16837        -5.51982         4.40137
     2014.17111        -1.61919         4.38380
     2014.17385         2.49444         4.38699
     2014.17659        -0.26093         4.31511
     2014.17932         2.50670         4.45807
     2014.18206        -4.10666         4.36543
     2014.18480        -0.38703         4.32949
     2014.18754        -0.57440         4.24244
     2014.19028        -5.02677         4.24244
     2014.19301        -2.79114         4.26959
     2014.19575        -1.85351         4.26001
     2014.19849         2.35612         4.27358
     2014.20123        -3.11525         4.26480
     2014.20397        -0.99861         4.31192
     2014.20670         2.92802         4.29435
     2014.20944        -0.75035         4.26001
     2014.21218         1.88228         4.32230
     2014.21492        -3.07909         4.39098
     2014.21765        -3.62946         4.26240
     2014.22039        -1.85683         4.26959
     2014.22313        -2.42119         4.26560
     2014.22587        -3.20156         4.26640
     2014.22861        -1.90993         4.26080
     2014.23134         6.48370         4.27119
     2014.23408         0.39133         4.26879
     2014.23682        -1.15304         4.25042
     2014.23956        -4.37341         4.34067
     2014.24230        -1.17878         4.26879
     2014.24503        -7.64114         4.26879
     2014.24777         1.41149         4.43651
     2014.25051        -2.81788         4.26001
     2014.25325        -2.95025         4.26560
     2014.25598        -2.37362         4.38779
     2014.25872        -2.01799         4.27358
     2014.26146        -1.87836         4.38140
     2014.26420        -5.59672         4.27598
     2014.26694        -6.57809         4.30553
     2014.26967        -4.14746         4.25601
     2014.27241        -3.58383         4.35265
     2014.27515        -2.23620         4.37741
     2014.27789        -1.28057         4.30313
     2014.28062        -1.72194         4.26959
     2014.28336        -2.85031         4.29435
     2014.28610         4.10933         4.34386
     2014.28884        -0.20704         4.45807
     2014.29158        -5.85241         4.24803
     2014.29431         0.95322         4.25282
     2014.29705         2.60385         4.27199
     2014.29979        -4.59552         4.23605
     2014.30253        -0.86389         4.24962
     2014.30527         1.16275         4.29275
     2014.30800        -0.71662         4.29195
     2014.31074        -0.29899         4.26480
     2014.31348         1.26764         4.25042
     2014.31622         1.15827         4.22087
     2014.31895         0.15090         4.28237
     2014.32169        -3.61747         4.37741
     2014.32443       -11.70984         4.37341
     2014.32717        -9.33520         4.34227
     2014.32991        -1.89857         4.22167
     2014.33264        -5.77694         4.25362
     2014.33538        -0.12631         4.31511
     2014.33812         0.94132         4.36703
     2014.34086         2.79795         4.25442
     2014.34360        -3.21142         4.22247
     2014.34633        -4.97678         4.22487
     2014.34907        -7.63515         4.39737
     2014.35181         1.08848         4.40856
     2014.35455        -3.20089         4.25362
     2014.35728        -6.69126         4.24882
     2014.36002        -9.14663         4.19611
     2014.36276       -10.64400         4.25122
     2014.36550        -6.61137         4.28716
     2014.36824        -7.18773         4.33907
     2014.37097        -1.99310         4.30553
     2014.37371        -3.95747         4.29355
     2014.37645         1.88516         4.25521
     2014.37919        -1.32621         4.27358
     2014.38193        -2.99858         4.31591
     2014.38466        -2.28895         4.31192
     2014.38740        -3.82731         4.28476
     2014.39014        -1.15168         4.30473
     2014.39288        -2.51605         4.30872
     2014.39561        -0.79342         4.32629
     2014.39835         0.09321         4.33348
     2014.40109        -5.92416         4.34546
     2014.40383        -7.75753         4.36064
     2014.40657        -7.35290         4.29195
     2014.40930        -4.46226         4.32629
     2014.41204        -4.81563         4.24004
     2014.41478         0.65800         4.26480
     2014.41752        -3.23537         4.26160
     2014.42026         3.72726         4.34866
     2014.42299        -5.53011         4.30553
     2014.42573        -0.49748         4.25921
     2014.42847        -4.06784         4.26400
     2014.43121        -4.47121         4.22806
     2014.43394        -4.66558         4.24643
     2014.43668        -2.34095         4.32470
     2014.43942         2.08568         4.28716
     2014.44216        -7.87369         4.25442
     2014.44490        -0.66606         4.34706
     2014.44763         4.58258         4.37182
     2014.45037        -4.36879         4.24084
     2014.45311        -0.93016         4.34307
     2014.45585        -0.86853         4.28636
     2014.45859        -6.54590         4.23844
     2014.46132        -6.97327         4.24483
     2014.46406         1.83036         4.24643
     2014.46680        -5.43001         4.34147
     2014.46954        -1.88737         4.31112
     2014.47227        -2.19274         4.27039
     2014.47501        -5.99411         4.25841
     2014.47775        -2.59348         4.31112
     2014.48049        -4.85385         4.26719
     2014.48323         0.39878         4.35744
     2014.48596         2.05441         4.32230
     2014.48870         6.49305         4.33109
     2014.49144        -1.70932         4.18893
     2014.49418        -1.39469         4.19931
     2014.49692        -3.10106         4.22806
     2014.49965        -4.44743         4.26320
     2014.50239        -0.76680         4.34227
     2014.50513         1.08283         4.27758
     2014.50787        -2.74054         4.24084
     2014.51060        -5.20190         4.21049
     2014.51334         0.42273         4.23924
     2014.51608         8.45736         4.23605
     2014.51882         3.03299         4.29834
     2014.52156         2.85062         4.30952
     2014.52429         1.64725         4.21209
     2014.52703         6.80188         4.21209
     2014.52977        -3.17248         4.24483
     2014.53251        -0.75485         4.29435
     2014.53525         6.20278         4.33907
     2014.53798         6.67141         4.23285
     2014.54072         6.91104         4.31831
     2014.54346         7.44267         4.26080
     2014.54620         3.83230         4.28237
     2014.54893        -3.17907         4.41255
     2014.55167         0.90157         4.25042
     2014.55441        -0.75180         4.30553
     2014.55715        -0.41817         4.28636
     2014.55989        -0.96454         4.33109
     2014.56262         0.15909         4.21688
     2014.56536        -0.45428         4.26080
     2014.56810        -0.82865         4.28237
     2014.57084        -1.03401         4.26480
     2014.57357        -0.98738         4.27598
     2014.57631        -2.82875         4.26560
     2014.57905         3.93488         4.24643
     2014.58179         1.50751         4.35425
     2014.58453        -0.03486         4.38220
     2014.58726        -0.31223         4.49241
     2014.59000         5.09640         4.38140
     2014.59274        -1.19096         4.37741
     2014.59548         1.40067         4.30793
     2014.59822         5.80630         4.33029
     2014.60095         0.01493         4.36303
     2014.60369         3.83956         4.28636
     2014.60643        -4.99481         4.29914
     2014.60917         1.66282         4.29355
     2014.61190         4.22146         4.38699
     2014.61464         0.28009         4.44849
     2014.61738         9.06772         4.43970
     2014.62012         5.21135         4.42373
     2014.62286         2.28598         4.24084
     2014.62559         0.40661         4.28157
     2014.62833         7.94424         4.29035
     2014.63107         8.63087         4.35345
     2014.63381         5.31451         4.38460
     2014.63655         5.49314         4.35425
     2014.63928         4.36977         4.38699
     2014.64202         2.47640         4.27438
     2014.64476        -0.20797         4.28716
     2014.64750         3.47966         4.21209
     2014.65023         4.43029         4.22167
     2014.65297        10.12793         4.25442
     2014.65571         4.02556         4.33188
     2014.65845         8.37319         4.29355
     2014.66119         8.18082         4.27039
     2014.66392         8.05945         4.24962
     2014.66666        11.29908         4.22806
     2014.66940         9.15671         4.26640
     2014.67214         8.18234         4.33268
     2014.67488         2.03898         4.21289
     2014.67761         0.22861         4.22327
     2014.68035         4.44024         4.23525
     2014.68309         3.59887         4.23844
     2014.68583         5.41050         4.26799
     2014.68856         3.41513         4.27119
     2014.69130        -0.61224         4.24403
     2014.69404         0.23940         4.23046
     2014.69678         0.81003         4.23285
     2014.69952         3.60966         4.22566
     2014.70225         3.58529         4.21049
     2014.70499         1.42992         4.21927
     2014.70773         8.17255         4.24244
     2014.71047         7.04718         4.25042
     2014.71321         9.80281         4.18813
     2014.71594         5.70545         4.24723
     2014.71868         4.22808         4.18413
     2014.72142         7.88871         4.20570
     2014.72416         8.03134         4.22327
     2014.72689         7.88597         4.30233
     2014.72963         3.97860         4.21448
     2014.73237        -0.01877         4.25761
     2014.73511         1.83887         4.30553
     2014.73785         2.30950         4.25601
     2014.74058         2.12713         4.24084
     2014.74332        13.29576         4.35425
     2014.74606        10.25739         4.29275
     2014.74880         3.91802         4.24803
     2014.75154         0.63565         4.37341
     2014.75427         1.64929         4.26560
     2014.75701         2.34792         4.26080
     2014.75975         7.52455         4.27278
     2014.76249         6.47318         4.23844
     2014.76522         6.13581         4.28716
     2014.76796         7.49144         4.29355
     2014.77070        -0.40293         4.23046
     2014.77344         4.72570         4.23365
     2014.77618         8.55734         4.30074
     2014.77891         6.49497         4.24723
     2014.78165         8.02260         4.28157
     2014.78439         7.15123         4.39019
     2014.78713        13.17586         4.21608
     2014.78987         1.67949         4.23046
     2014.79260         2.21612         4.22167
     2014.79534         5.49376         4.23764
     2014.79808         7.10439         4.33907
     2014.80082         3.87602         4.25521
     2014.80355         6.52565         4.35584
     2014.80629        -0.51472         4.35025
     2014.80903         5.72391         4.24483
     2014.81177         6.65154         4.20730
     2014.81451         7.22417         4.22247
     2014.81724         7.73081         4.21528
     2014.81998         5.93844         4.28397
     2014.82272        -0.15693         4.35425
     2014.82546         6.81170         4.21848
     2014.82820        -0.08367         4.17774
     2014.83093         3.25996         4.26719
     2014.83367         5.62759         4.26160
     2014.83641        -0.37277         4.29435
     2014.83915         4.46586         4.26879
     2014.84188         3.30049         4.37581
     2014.84462        -4.92388         4.30952
     2014.84736         1.41975         4.32230
     2014.85010        -1.93762         4.31112
     2014.85284         2.19601         4.33348
     2014.85557         8.01264         4.33907
     2014.85831         5.51328         4.34706
     2014.86105        -5.31009         4.25921
     2014.86379        -6.64446         4.25681
     2014.86653        -4.46983         4.27438
     2014.86926        -2.36020         4.26719
     2014.87200        -1.25757         4.25921
     2014.87474        -5.56394         4.24882
     2014.87748        -4.61430         4.26959
     2014.88021        -2.34667         4.25921
     2014.88295         1.20496         4.26560
     2014.88569         2.00659         4.45168
     2014.88843         8.71922         4.51078
     2014.89117        11.11885         4.54033
     2014.89390         2.40548         4.41494
     2014.89664         6.74911         4.38699
     2014.89938        -0.57025         4.37741
     2014.90212        -8.93062         4.32629
     2014.90485        -2.96199         4.21927
     2014.90759         4.28864         4.18413
     2014.91033         3.08027         4.24004
     2014.91307         1.91190         4.20889
     2014.91581         1.51853         4.20490
     2014.91854         2.40317         4.22007
     2014.92128        -1.92420         4.22327
     2014.92402         2.90943         4.20330
     2014.92676         1.28106         4.21768
     2014.92950        -4.12231         4.24323
     2014.93223        -4.79168         4.22646
     2014.93497        -6.02405         4.23685
     2014.93771        -5.29042         4.24882
     2014.94045         1.06322         4.26320
     2014.94318         4.98585         4.42692
     2014.94592         3.34648         4.27518
     2014.94866        -4.09889         4.21927
     2014.95140        -4.40426         4.18413
     2014.95414        -2.93063         4.16417
     2014.95687         3.47300         4.23046
     2014.95961         6.15564         4.22087
     2014.96235         1.48727         4.19691
     2014.96509         4.94690         4.28956
     2014.96783        -3.89347         4.21768
     2014.97056        -3.56484         4.24643
     2014.97330        -2.68621         4.22886
     2014.97604        -9.11358         4.22247
     2014.97878         0.14705         4.21049
     2014.98151         5.02269         4.28876
     2014.98425        -4.83768         4.17774
     2014.98699         1.05695         4.19372
     2014.98973        -4.07342         4.19771
     2014.99247        -8.34779         4.15458
     2014.99520       -12.08416         4.17695
     2014.99794        -7.45753         4.18174
     2015.00068        -6.48989         4.16736
     2015.00342        -6.82826         4.20170
     2015.00616        -9.70263         4.17695
     2015.00889        -9.33500         4.25122
     2015.01163        -9.77837         4.24244
     2015.01437        -7.85674         4.22327
     2015.01711        -6.05211         4.32230
     2015.01984        -3.60647         4.17615
     2015.02258        -2.50184         4.29435
     2015.02532        -0.69821         4.20889
     2015.02806        -2.57358         4.17215
     2015.03080        -0.80095         4.20170
     2015.03353        -7.31532         4.18733
     2015.03627        -2.47969         4.22087
     2015.03795         4.01554         8.88739
     2015.04304        -0.63271        41.67283
     2015.04362         0.94207         6.91153
     2015.04818         0.13611         7.58080
     2015.04996        -0.59553         4.21209
     2015.05270        -5.01890         4.22806
     2015.05544        -5.54727         4.22167
     2015.05817         0.17236         4.22966
     2015.06091        -1.16900         4.20969
     2015.06365         3.96563         4.28317
     2015.06639         1.61926         5.55622
     2015.06913        -1.85111         5.65525
     2015.07186        -3.94948         4.23125
     2015.07460        -1.97985         4.18573
     2015.07734        -7.71722         4.17934
     2015.08008       -10.08759         4.18094
     2015.08282        -6.51295         4.21368
     2015.08423       -23.84608       134.73806
     2015.09222         2.26852        11.97418
     2015.09377        -2.61943         5.38690
     2015.09526        -9.24745        14.36374
     2015.10314         5.95600        10.86485
     2015.10472         0.24910         4.83024
     2015.10746         1.18073         4.19132
     2015.11019        -6.51264         6.40039
     2015.11293        -7.47601         5.09859
     2015.11567        -0.43438         5.81498
     2015.11841        -7.66775         4.18813
     2015.12115        -2.25812         4.20410
     2015.12388        -7.40248         4.19691
     2015.12662        -8.99685         4.20410
     2015.12936        -6.84422         4.18254
     2015.13210        -4.29359         4.24803
     2015.13483        -5.56196         4.24164
     2015.13757        -3.31533         4.30154
     2015.14031       -10.37670         4.18972
     2015.14305        -5.56706         4.18733
     2015.14579        -5.54843         4.21049
     2015.14852        -2.69580         4.17934
     2015.15126        -2.99017         4.17934
     2015.15400        -4.39354         4.17535
     2015.15674        -0.93491         4.18094
     2015.15948        -0.48128         4.18653
     2015.16221        -3.19165         4.16976
     2015.16495        -1.54101         4.18174
     2015.16769        -2.71738         4.21528
     2015.17043        -1.84075         4.21448
     2015.17316        -1.41612         4.30313
     2015.17590        -5.72149         4.31431
     2015.17864        -2.64186         4.17854
     2015.18138         1.06577         4.18174
     2015.18412         1.26941         4.18813
     2015.18685         0.39204         4.20330
     2015.18959         1.11667         4.25042
     2015.19233        -3.07970         4.28796
     2015.19507        -2.71907         4.16736
     2015.19780         1.05556         4.17295
     2015.20054         0.66319         4.16497
     2015.20328        -4.71718         4.19292
     2015.20602        -8.74854         4.37661
     2015.20876        -6.56291         4.16736
     2015.21149       -10.04128         4.16097
     2015.21423        -7.81665         4.34466
     2015.21697        -1.35202         4.24323
     2015.21971        -7.33439         4.23605
     2015.22245        -1.22676         4.17695
     2015.22518        -2.59412         4.15858
     2015.22792        -4.10549         4.19212
     2015.23066        -3.53786         4.18813
     2015.23340        -0.96123         4.30233
     2015.23613        -0.49760         4.35265
     2015.23887        -2.19297         4.36383
     2015.24161        -2.70034         4.38939
     2015.24435         0.82129         4.41175
     2015.24709        -1.28307         4.30952
     2015.24982        -4.13544         4.18254
     2015.25256         0.11619         4.16337
     2015.25530        -3.57718         4.15698
     2015.25804        -2.73655         4.20490
     2015.26078        -0.44292         4.19532
     2015.26351         0.08671         4.18174
     2015.26625         2.36635         4.20170
     2015.26899        -3.29602         4.18813
     2015.27173         4.31561         4.29834
     2015.27446         8.03424         4.30713
     2015.27720         6.61687         4.22167
     2015.27994        -0.23550         4.25601
     2015.28268         3.19913         4.19292
     2015.28542        -0.49624         4.26240
     2015.28815        -6.83960         4.34227
     2015.29089        -2.67797         4.24244
     2015.29363        -3.93334         4.26080
     2015.29637        -7.65171         4.23205
     2015.29911         1.06892         4.19532
     2015.30184         1.32755         4.18653
     2015.30458         0.62918         4.22247
     2015.30732        -1.93818         4.12743
     2015.31006         1.57745         4.11385
     2015.31279        -2.68792         4.10107
     2015.31553        -7.26529         4.06673
     2015.31827        -5.17966         4.12104
     2015.32101        -4.25403         4.12104
     2015.32375        -3.42640         4.15538
     2015.32648        -3.49776         4.19132
     2015.32922        -1.90113         4.16736
     2015.33196        -1.53050         4.11705
     2015.33470        -2.44387         4.10347
     2015.33744        -1.86724         4.10986
     2015.34017        -1.07761         4.10587
     2015.34291        -5.23098         4.08989
     2015.34565        -4.71735         4.10267
     2015.34839        -1.99271         4.09628
     2015.35112        -6.46308         4.12184
     2015.35386        -1.34045         4.09628
     2015.35660        -3.47182         4.11545
     2015.35934        -1.43219         4.16177
     2015.36208        -3.22256         4.16976
     2015.36481         0.17807         4.10427
     2015.36755        -0.83129         4.11226
     2015.37029        -0.56766         4.09069
     2015.37303        -4.63303         4.07312
     2015.37577        -3.52640         4.07152
     2015.37850        -8.48777         4.21848
     2015.38124        -5.14714         4.08111
     2015.38398        -4.72451         4.14181
     2015.38672        -5.83588         4.16896
     2015.38945        -2.64024         4.13222
     2015.39219        -2.84261         4.13542
     2015.39493         1.08802         4.29595
     2015.39767        -6.37735         4.15458
     2015.40041        -5.50272         4.14340
     2015.40314        -8.16609         4.21927
     2015.40588        -6.65746         4.14660
     2015.40862        -1.31682         4.21289
     2015.41136         1.73781         4.16417
     2015.41410        -2.56356         4.15778
     2015.41683         0.22907         4.15379
     2015.41957        -4.68930         4.10028
     2015.42231        -1.73667         4.10267
     2015.42505        -7.50904         4.26719
     2015.42778        -2.56141         4.12583
     2015.43052        -1.03577         4.15858
     2015.43326        -5.56614         4.13382
     2015.43600         1.86049         4.14420
     2015.43874         0.34412         4.15698
     2015.44147        -2.52825         4.31352
     2015.44421        -2.68662         4.17455
     2015.44695        -2.46199         4.10666
     2015.44969        -4.74135         4.11226
     2015.45243        -5.59472         4.21129
     2015.45516        -3.78009         4.14500
     2015.45790        -2.59946         4.19771
     2015.46064         3.38817         4.21848
     2015.46338         2.11180         4.22007
     2015.46611         0.96743         4.10107
     2015.46885         1.89806         4.13462
     2015.47159         3.89670         4.12424
     2015.47433        -3.84367         4.30872
     2015.47707        -3.50804         4.19851
     2015.47980        -0.10841         4.19452
     2015.48254        -1.76678         4.17295
     2015.48528        -1.32315         4.13222
     2015.48802        -3.37152         4.11944
     2015.49076         1.22812         4.22966
     2015.49349        -0.00725         4.33428
     2015.49623        -3.34062         4.31990
     2015.49897         0.28301         4.24882
     2015.50171         1.54664         4.14979
     2015.50444         1.62127         4.11625
     2015.50718        -3.77810         4.17136
     2015.50992         0.48553         4.12743
     2015.51266         6.05817         4.15059
     2015.51540         3.47280         4.16097
     2015.51813         4.64243         4.11146
     2015.52087         7.80506         4.11545
     2015.52361         5.17969         4.27997
     2015.52635         3.64032         4.16337
     2015.52908         7.70695         4.19212
     2015.53182         6.96859         4.17136
     2015.53456         7.96422         4.15059
     2015.53730        -1.61715         4.19452
     2015.54004        -1.36852         4.25921
     2015.54277         3.27411         4.23525
     2015.54551         9.08474         4.26480
     2015.54825         5.22737         4.28956
     2015.55099         6.46100         4.26001
     2015.55373         7.90064         4.23685
     2015.55646         8.39427         4.24643
     2015.55920         9.73490         4.21848
     2015.56194        13.62353         4.26240
     2015.56468         8.87916         4.23205
     2015.56741         5.00179         4.17535
     2015.57015         8.56342         4.31591
     2015.57289         6.91406         4.33827
     2015.57563         4.00369         4.20730
     2015.57837         3.54932         4.21289
     2015.58110         8.34095         4.19532
     2015.58384        10.07458         4.22247
     2015.58658        10.63321         4.22806
     2015.58932         9.71784         4.41734
     2015.59206         8.49748         4.27678
     2015.59479         9.68611         4.26001
     2015.59753        12.00174         4.20410
     2015.60027        11.08337         4.34546
     2015.60301        16.86500         4.37741
     2015.60574         8.65963         4.34147
     2015.60848        13.11326         4.23924
     2015.61122         9.47189         4.17695
     2015.61396        10.60053         4.22886
     2015.61670         9.08916         4.29355
     2015.61943         7.38779         4.21448
     2015.62217         9.49642         4.20730
     2015.62491        11.51405         4.10666
     2015.62765         4.92268         4.14899
     2015.63039         9.59231         4.13941
     2015.63312        10.81195         4.15219
     2015.63586        11.41758         4.32550
     2015.63860         5.85021         4.16097
     2015.64134        11.49784         4.13462
     2015.64407         9.56847         4.14979
     2015.64681         8.05510         4.29035
     2015.64955        12.11073         4.12503
     2015.65229         8.71236         4.15858
     2015.65503        15.66400         4.12903
     2015.65776        11.30163         4.26160
     2015.66050        11.88726         4.16976
     2015.66324        15.94689         4.14580
     2015.66598        18.09352         4.29914
     2015.66872        12.26515         4.28956
     2015.67145        10.95178         4.14420
     2015.67419        10.79542         4.09948
     2015.67693        11.66405         4.12344
     2015.67967         7.09868         4.11465
     2015.68240         6.02931         4.13781
     2015.68514         5.57594         4.26320
     2015.68788         8.29757         4.22726
     2015.69062        10.77020         4.13222
     2015.69336         3.83583         4.27438
     2015.69609        11.39147         4.14580
     2015.69883        11.75110         4.18493
     2015.70157        12.93173         4.21049
     2015.70431        11.76536         4.15059
     2015.70705        13.36899         4.18334
     2015.70978        12.01762         4.13941
     2015.71252         6.11825         4.13142
     2015.71526        10.24389         4.15778
     2015.71800        10.70352         4.22167
     2015.72073        15.11715         4.31431
     2015.72347         9.79478         4.11705
     2015.72621         4.70841         4.12024
     2015.72895         5.31004         4.14740
     2015.73169        10.77767         4.20490
     2015.73442         7.93230         4.16736
     2015.73716        10.03794         4.12743
     2015.73990        12.10357         4.22007
     2015.74264         7.53720         4.23125
     2015.74538        11.04783         4.33188
     2015.74811         7.23446         4.35904
     2015.75085         3.82909         4.16816
     2015.75359         4.50872         4.17136
     2015.75633         6.18936         4.14979
     2015.75906         7.24099         4.13062
     2015.76180         2.20762         4.15858
     2015.76454         7.86025         4.18174
     2015.76728         5.30088         4.16017
     2015.77002        11.32351         4.30793
     2015.77275        10.09214         4.17695
     2015.77549        13.73577         4.17934
     2015.77823        13.16241         4.16816
     2015.78097         5.92204         4.16417
     2015.78371         6.14067         4.17535
     2015.78644         9.24830         4.16257
     2015.78918         4.06193         4.16097
     2015.79192        10.85156         4.14580
     2015.79466         5.36819         4.15778
     2015.79739         8.04083         4.13302
     2015.80013         1.47346         4.34866
     2015.80287         3.38309         4.16497
     2015.80561         2.82272         4.16257
     2015.80835         3.89435         4.15938
     2015.81108        -0.24702         4.14021
     2015.81382         3.05361         4.14021
     2015.81656         2.49724         4.17295
     2015.81930         4.20188         4.18813
     2015.82203         6.33151         4.17056
     2015.82477         8.62914         4.18413
     2015.82751         5.97777         4.20969
     2015.83025        11.86040         4.17615
     2015.83299         2.34903         4.21688
     2015.83572         5.56666         4.18094
     2015.83846         1.77030         4.25841
     2015.84120         4.14593         4.23285
     2015.84394         3.40056         4.24882
     2015.84668        -0.82781         4.23605
     2015.84941         8.33082         4.26080
     2015.85215         8.87445         4.26959
     2015.85489         8.96708         4.25282
     2015.85763         1.77571         4.22007
     2015.86036         2.81435         4.24563
     2015.86310         1.36998         4.26560
     2015.86584         9.63761         4.26400
     2015.86858         5.93824         4.26480
     2015.87132         7.02887         4.25921
     2015.87405        -0.73750         4.23445
     2015.87679         0.64913         4.27278
     2015.87953         5.86477         4.23764
     2015.88227         7.50640         4.22726
     2015.88501        -2.03197         4.22726
     2015.88774        -3.72534         4.21049
     2015.89048         2.03229         4.20650
     2015.89322         6.32492         4.20410
     2015.89596        -2.41345         4.21608
     2015.89869         5.14919         4.20490
     2015.90143        -2.77118         4.19691
     2015.90417        -4.77155         4.19771
     2015.90691         1.01808         4.23685
     2015.90965         1.03671         4.22726
     2015.91238         1.23834         4.23365
     2015.91512        -1.16803         4.23764
     2015.91786         3.46760         4.27358
     2015.92060         5.71224         4.28476
     2015.92334         5.52387         4.29914
     2015.92607        -2.08750         4.31272
     2015.92881        -0.80987         4.30553
     2015.93155         0.34276         4.41335
     2015.93429         7.09639         4.42772
     2015.93702         9.52202         4.41734
     2015.93976         4.68066         4.42932
     2015.94250         2.13629         4.42613
     2015.94524        -1.56808         4.33508
     2015.94798         5.67755         4.31831
     2015.95071         8.31218         4.18733
     2015.95345         0.08681         4.20730
     2015.95619         2.42244         4.30393
     2015.95893        -0.66693         4.40856
     2015.96167         4.76571         4.33268
     2015.96440         4.18934         4.18893
     2015.96714         7.83797         4.26400
     2015.96988         7.43660         4.21848
     2015.97262        15.34623         4.23205
     2015.97535         9.32786         4.22087
     2015.97809         5.93949         4.21848
     2015.98083         3.43913         6.11527
     2015.98264        -7.39347         7.41228
     2015.99018         1.69852        10.47032
     2015.99178        -7.02835         6.46428
     2015.99452         0.44528         5.88287
     2015.99726        -1.98909         4.27917
     2016.00000        -4.53446         4.25921
     2016.00273        -5.14282         4.26959
     2016.00547        -4.67919         4.23285
     2016.00821        -3.20656         4.26959
     2016.01095         3.26307         4.22247
     2016.01368        -2.35630         4.26320
     2016.01517         6.88867        16.82279
     2016.02295         1.48899         8.66936
     2016.02464         0.98223         6.79812
     2016.02615         7.05724        14.31023
     2016.03134        -0.91688        14.29746
     2016.03285         7.60912         5.67601
     2016.03559        -0.88425         6.55293
     2016.03833         2.69538         4.33588
     2016.04106         1.71801         4.15778
     2016.04380         1.97065         4.15698
     2016.04654         6.35528         4.99956
     2016.04928         4.37991         6.73103
     2016.05201        -1.86146         8.36428
     2016.05361         4.04365        10.65720
     2016.05866         4.48235        11.35283
     2016.06023         0.64043         4.15458
     2016.06297         5.50707        10.15405
     2016.06461         0.57025         9.31786
     2016.07239         2.32056        13.75198
     2016.07305        -9.68356         7.30526
     2016.08050         7.35032        10.26906
     2016.08213        -1.19352         4.35984
     2016.08487        -1.75088         4.26719
     2016.08761        -6.46325         5.92200
     2016.09034        -4.98762         4.95084
     2016.09308        -1.11099         9.25317
     2016.09582        -7.38736         5.58577
     2016.09856        -9.08773         4.26879
     2016.10130       -13.96010         4.22646
     2016.10403       -12.42046         4.24244
     2016.10677       -10.09383         4.19452
     2016.10951        -7.31420         4.20650
     2016.11225        -9.84657         4.21289
     2016.11498        -4.89894         4.24643
     2016.11772        -9.67331         4.24244
     2016.12046        -6.39068         4.20410
     2016.12320        -4.46305         4.19771
     2016.12594        -5.73241         4.21608
     2016.12867         2.84822         4.25601
     2016.13141         4.31085         4.21448
     2016.13415         1.74548         4.20170
     2016.13689        -3.87289         4.16816
     2016.13963        -7.23526         4.16736
     2016.14236       -13.20063         4.17455
     2016.14510        -9.66199         4.23365
     2016.14784        -8.99936         4.19052
     2016.15058        -6.94373         4.15299
     2016.15331        -4.73810         4.26480
     2016.15605        -3.51047         4.16736
     2016.15879        -4.90984         4.33668
     2016.16153        -4.21121         4.31272
     2016.16427        -4.15357         4.26080
     2016.16700        -6.73194         4.21209
     2016.16974        -5.80531         4.20570
     2016.17248        -6.04168         4.31272
     2016.17522        -1.15005         4.24723
     2016.17796         4.36558         4.26879
     2016.18069        -3.31279         4.30952
     2016.18343        -4.38416         4.39578
     2016.18617        -1.27252         4.17295
     2016.18891        -2.81489         4.15938
     2016.19164         0.82374         4.19452
     2016.19438         0.96837         4.17375
     2016.19712         1.86200         4.10666
     2016.19986         2.50563         4.22327
     2016.20260        -4.69174         4.26240
     2016.20533        -5.04210         4.35265
     2016.20807        -7.53747         4.32070
     2016.21081        -9.19084         4.23844
     2016.21355        -7.87021         4.22487
     2016.21629        -5.00358         4.14979
     2016.21902        -0.58695         4.16097
     2016.22176        -1.79832         4.16017
     2016.22450        -7.38769         4.13941
     2016.22724       -10.95605         4.16337
     2016.22997        -3.59442         4.10826
     2016.23271        -4.68079         4.11625
     2016.23545        -1.81816         4.11785
     2016.23819        -1.40353         4.13382
     2016.24093         0.86510         4.19611
     2016.24366        -0.71127         4.12264
     2016.24640        -1.55763         4.13542
     2016.24914        -8.04400         4.12503
     2016.25188        -1.17837         4.14340
     2016.25462        -3.33174         4.15458
     2016.25735        -4.48511         4.16656
     2016.26009        -8.86548         4.15299
     2016.26283       -12.18285         4.15458
     2016.26557        -6.60422         4.15139
     2016.26830        -6.00158         4.13701
     2016.27104        -3.26895         4.16417
     2016.27378        -0.34032         4.14660
     2016.27652        -1.53569         4.14340
     2016.27926        -2.03006         4.13142
     2016.28199        -6.26643         4.19212
     2016.28473        -3.71780         4.17295
     2016.28747        -9.91116         4.16736
     2016.29021       -11.05953         4.16497
     2016.29295        -8.54590         4.13622
     2016.29568        -6.53327         4.16976
     2016.29842        -3.63364         4.23605
     2016.30116        -4.61401         4.25921
     2016.30390        -9.94638         4.22886
     2016.30663         3.52025         4.24164
     2016.30937        -2.96811         4.18254
     2016.31211        -4.45848         4.19452
     2016.31485         1.57015         4.14420
     2016.31759        -3.95822         4.16816
     2016.32032        -6.77859         4.16337
     2016.32306        -9.73396         4.20011
     2016.32580        -9.14533         4.16736
     2016.32854        -3.90569         4.16257
     2016.33128        -8.79306         4.13701
     2016.33401        -2.01943         4.23445
     2016.33675        -5.80380         4.22487
     2016.33949        -3.56917         4.20730
     2016.34223        -0.36354         4.22087
     2016.34496        -1.37791         4.29435
     2016.34770         2.61272         4.22966
     2016.35044         3.47636         4.40057
     2016.35318        -0.91701         4.12983
     2016.35592        -8.84638         4.14580
     2016.35865       -10.38575         4.16417
     2016.36139        -9.28412         4.12903
     2016.36413         0.85551         4.15618
     2016.36687        -0.83486         4.16017
     2016.36961         9.10678         4.18653
     2016.37234         4.16141         4.16097
     2016.37508        -1.64896         4.15059
     2016.37782        -6.55633         4.13781
     2016.38056         6.16530         4.24403
     2016.38329         1.02693         4.11146
     2016.38603         0.05856         4.15778
     2016.38877         9.49019         4.15458
     2016.39151         2.38283         4.13701
     2016.39425        -6.46354         4.14181
     2016.39698         0.75609         4.12583
     2016.39972         0.39672         4.13382
     2016.40246        -2.44565         4.22407
     2016.40520        -3.51702         4.12583
     2016.40794        -5.95739         4.14979
     2016.41067       -10.35675         4.19292
     2016.41341        -7.69012         4.13302
     2016.41615        -3.79149         4.14979
     2016.41889        -3.25486         4.20170
     2016.42162        -2.68323         4.23205
     2016.42436        -4.44060         4.17295
     2016.42710        -1.81497         4.13142
     2016.42984        -2.64034         4.20809
     2016.43258        -0.11370         4.14181
     2016.43531         2.00193         4.28397
     2016.43805         1.30656         4.16017
     2016.44079        -3.01281         4.18014
     2016.44353        -1.72818         4.14181
     2016.44626        -5.71355         4.16177
     2016.44900        -4.92892         4.15299
     2016.45174        -1.16128         4.15778
     2016.45448        -0.39065         4.12903
     2016.45722         0.47998         4.15299
     2016.45995        -0.04139         4.12903
     2016.46269        -1.24876         4.13781
     2016.46543        -7.50313         4.13941
     2016.46817        -3.86650         4.14021
     2016.47091         2.30014         4.21129
     2016.47364         1.58477         4.16896
     2016.47638         8.45040         4.27917
     2016.47912         2.52603         4.32550
     2016.48186        -2.02134         4.14660
     2016.48459        -4.22871         4.15778
     2016.48733        -1.21208         4.17854
     2016.49007         3.45555         4.17695
     2016.49281         2.57819         4.24803
     2016.49555         3.59782         4.19691
     2016.49828        -2.81155         4.17854
     2016.50102         3.06508         4.21289
     2016.50376         2.57671         4.42613
     2016.50650         4.15134         4.25042
     2016.50924        -0.66303         4.17455
     2016.51197        -2.57439         4.16337
     2016.51471        -0.89776         4.17375
     2016.51745         0.52287         4.30793
     2016.52019         0.44250         4.31272
     2016.52292        -0.49387         4.15219
     2016.52566         4.15176         4.13462
     2016.52840        -0.19761         4.09788
     2016.53114        -3.73798         4.17615
     2016.53388         0.40966         4.17375
     2016.53661        -2.39971         4.19691
     2016.53935         1.44792         4.12663
     2016.54209         3.55955         4.14819
     2016.54483         4.85118         4.16017
     2016.54757        -0.59619         4.19372
     2016.55030        -0.42456         4.25362
     2016.55304         1.59508         4.13302
     2016.55578         6.47371         4.29834
     2016.55852         2.65434         4.15938
     2016.56125         4.49997         4.14021
     2016.56399         4.13860         4.18972
     2016.56673         2.29823         4.26320
     2016.56947        -0.30514         4.35984
     2016.57221        12.85949         4.23125
     2016.57494         7.63013         4.21289
     2016.57768         2.61176         4.22007
     2016.58042         6.50839         4.19611
     2016.58316         2.09002         4.13781
     2016.58590         1.31665         4.15139
     2016.58863         2.69428         4.16177
     2016.59137         0.46591         4.12823
     2016.59411         5.18055         4.17774
     2016.59685        11.62618         4.28876
     2016.59958         6.34581         4.19132
     2016.60232         4.14744         4.13382
     2016.60506         0.77707         4.15379
     2016.60780         3.59270         4.15059
     2016.61054         2.24133         4.17934
     2016.61327         0.23296         4.16097
     2016.61601         2.85360         4.10187
     2016.61875         6.46523         4.14021
     2016.62149         5.09586         4.14660
     2016.62423         5.53749         4.21129
     2016.62696         6.59012         4.13781
     2016.62970        -0.22425         4.15458
     2016.63244         3.62238         4.18893
     2016.63518         3.70402         4.10187
     2016.63791        10.30965         4.12743
     2016.64065        14.24528         4.20410
     2016.64339         6.12491         4.13382
     2016.64613         6.63554         4.12503
     2016.64887         1.13417         4.14819
     2016.65160        10.85080         4.23924
     2016.65434         4.49043         4.18174
     2016.65708        -0.46093         4.18493
     2016.65982         0.97670         4.13781
     2016.66256         0.44533         4.19851
     2016.66529         3.15496         4.20410
     2016.66803         1.54959         4.17695
     2016.67077         5.38122         4.23205
     2016.67351         5.99685         4.14420
     2016.67624         9.72849         4.13062
     2016.67898         8.48012         4.11305
     2016.68172        14.85875         4.10746
     2016.68446         6.28838         4.28157
     2016.68720         5.55501         4.36623
     2016.68993         6.74464         4.16816
     2016.69267         5.71827         4.13382
     2016.69541         6.58890         4.17854
     2016.69815        12.42954         4.13222
     2016.70089        11.81517         4.11226
     2016.70362         7.56980         4.24803
     2016.70636         6.69543         4.40217
     2016.70910         8.23406         4.35425
     2016.71184        13.71369         4.10746
     2016.71457        11.42132         4.12344
     2016.71731        10.57896         4.12823
     2016.72005         8.01559         4.12983
     2016.72279         9.01922         4.11465
     2016.72553        11.83885         4.18094
     2016.72826         5.62748         4.20091
     2016.73100         3.73411         4.12583
     2016.73374         7.07974         4.14420
     2016.73648         2.39038         4.13701
     2016.73921        11.56001         4.18493
     2016.74195         7.05464         4.09868
     2016.74469         3.71527         4.10427
     2016.74743        10.19490         4.26080
     2016.75017        11.17953         4.15698
     2016.75290         6.66716         4.08750
     2016.75564        11.34579         4.08111
     2016.75838        13.86443         4.09788
     2016.76112         7.25206         4.10826
     2016.76386         9.06169         4.13542
     2016.76659         3.51432         4.18174
     2016.76933         8.73595         4.12663
     2016.77207         3.81058         4.17615
     2016.77481         4.15121         4.12743
     2016.77754         2.17585         4.11226
     2016.78028         2.08248         4.12344
     2016.78302         1.94211         4.12104
     2016.78576         7.93474         4.15219
     2016.78850         9.18637         4.14420
     2016.79123         9.65600         4.11705
     2016.79397        11.29763         4.11465
     2016.79671         2.20926         4.11146
     2016.79945        -3.85410         4.10986
     2016.80219        -3.43147         4.18334
     2016.80492         0.72416         4.10746
     2016.80766         4.60179         4.13382
     2016.81040        -2.90858         4.11944
     2016.81314        -0.06995         4.12743
     2016.81587         0.04768         4.21688
     2016.81861        -3.56068         4.17535
     2016.82135         0.00495         4.11545
     2016.82409         0.93658         4.08191
     2016.82683        -1.58679         4.13142
     2016.82956         3.56884         4.11785
     2016.83230         7.40747         4.08830
     2016.83504         1.47310         4.08031
     2016.83778         1.55673         4.12424
     2016.84052        -2.82363         4.15938
     2016.84325        -4.27000         4.12104
     2016.84599        -1.18737         4.12743
     2016.84873         2.14326         4.10028
     2016.85147        -2.76111         4.12024
     2016.85420        -5.40048         4.14101
     2016.85694         1.40715         4.15858
     2016.85968        -4.54921         4.22806
     2016.86242        -7.10258         4.15778
     2016.86516         3.70305         4.20330
     2016.86789         4.02368         4.17535
     2016.87063         2.63231         4.16577
     2016.87337         9.79294         4.21289
     2016.87611         3.23657         4.12983
     2016.87885         0.33620         4.10507
     2016.88158        -9.19116         4.13542
     2016.88432        -1.47553         4.16896
     2016.88706        -0.22790         4.18733
     2016.88980         2.16773         4.15778
     2016.89253         0.19236         4.16736
     2016.89527        -1.48301         4.14979
     2016.89801         0.62162         4.14181
     2016.90075         0.98726         4.17375
     2016.90349         2.78589         4.28716
     2016.90622         5.95452         4.26080
     2016.90896         6.33615         4.13941
     2016.91170         0.43078         4.12264
     2016.91444         2.53141         4.13941
     2016.91718        -3.99296         4.23205
     2016.91991        -8.61433         4.24004
     2016.92265        -4.69569         4.11465
     2016.92539        -4.74306         4.12983
     2016.92813        -3.49843         4.12264
     2016.93086        -4.66380         4.13142
     2016.93360        -5.82817         4.11625
     2016.93634        -4.92554         4.13701
     2016.93908        -4.99691         4.18493
     2016.94182         0.59973         4.13781
     2016.94455        -2.68464         4.13781
     2016.94729         0.21399         4.15458
     2016.95003        -2.37638         4.21448
     2016.95277        -3.75475         4.19292
     2016.95551        -3.40612         4.12583
     2016.95824         0.47651         4.14021
     2016.96098        -2.57686         4.14660
     2016.96372        -8.10622         4.17455
     2016.96646        -1.68859         4.14580
     2016.96919         0.24604         4.16656
     2016.97193        -4.18933         4.18174
     2016.97467         5.09230         4.17215
     2016.97741         5.45593         4.18493
     2016.98015         4.36156         4.16577
     2016.98288        -0.15680         4.13861
     2016.98562        -2.20617         4.14260
     2016.98836         2.10646         4.16177
     2016.99110         2.91209         4.18094
     2016.99384        -0.84528         4.17535
     2016.99657         2.13635         4.14979
     2016.99931         0.10198         4.11864
     2017.00205         1.18661         4.12663
     2017.00479        -0.48275         4.11545
     2017.00752        -7.50312         4.12184
     2017.01026        -5.37149         4.13701
     2017.01300        -0.48086         4.14500
     2017.01574        -3.95423         4.12424
     2017.01848        -3.41460         4.16976
     2017.02121        -0.88697         4.14660
     2017.02395         1.08867         4.12823
     2017.02669         0.62130         4.16257
     2017.02943         3.90093         4.09868
     2017.03216        -5.34944         4.10187
     2017.03490        -6.44181         4.11864
     2017.03764        -9.90018         4.11305
     2017.04038        -6.41455         4.16417
     2017.04312        -3.75291         4.12983
     2017.04585         1.95672         4.30393
     2017.04859         3.61335         4.28317
     2017.05133         9.90398         4.14181
     2017.05407         9.94461         4.12104
     2017.05681         9.27024         4.12823
     2017.05954         1.21687         4.13622
     2017.06228        -1.33150         4.14979
     2017.06502        -4.93786         4.11385
     2017.06776        -5.81523         4.11944
     2017.07049        -5.44160         4.11625
     2017.07323       -12.02997         6.69829
     2017.07597       -11.16734         6.60485
     2017.07871       -10.57571         5.44041
     2017.08145        -7.06108         4.13302
     2017.08418       -12.10644         5.57299
     2017.08692        -8.37881         4.13861
     2017.08966        -8.90418         4.14740
     2017.09240        -6.24855         4.16896
     2017.09514        -2.86092         4.11785
     2017.09787        -1.10729         4.12344
     2017.10061         1.68034         4.10666
     2017.10335        -4.49903         4.14580
     2017.10609        -4.00839         4.16177
     2017.10882        -3.94876         4.13382
     2017.11156         4.48287         4.14660
     2017.11430        -6.32750         4.15299
     2017.11704       -12.51687         4.16097
     2017.11978       -10.47224         4.13781
     2017.12251        -9.45661         4.13622
     2017.12525        -2.97497         4.18413
     2017.12799        -1.83534         4.15698
     2017.13073        -0.41271         4.14580
     2017.13347         1.13192         4.13302
     2017.13620        -1.56645         4.14340
     2017.13894        -1.89582         4.14580
     2017.14168        -7.61019         4.13302
     2017.14442        -5.73756         4.14101
     2017.14715        -9.16292         4.14181
     2017.14989        -9.01429         4.14340
     2017.15263        -2.88566         4.14660
     2017.15537        -0.94903         4.14500
     2017.15811        -0.08540         4.26001
     2017.16084        -2.78577         4.13382
     2017.16358       -10.39914         4.14260
     2017.16632        -7.70350         4.12583
     2017.16906        -6.31587         4.14021
     2017.17180        -1.16524         4.12503
     2017.17453         2.86639         4.16577
     2017.17727        -0.82598         4.19292
     2017.18001        -1.98835         4.11705
     2017.18275        -4.38672         4.20650
     2017.18548        -8.34009         4.12823
     2017.18822       -12.29345         4.16497
     2017.19096       -11.07582         4.12264
     2017.19370        -8.26019         4.14740
     2017.19644        -5.08956         4.12983
     2017.19917        -6.77493         4.14819
     2017.20191        -6.78630         4.17375
     2017.20465        -7.90767         4.24244
     2017.20739        -7.05003         4.15778
     2017.21013        -1.22940         4.18254
     2017.21286        -5.25277         4.12823
     2017.21560        -5.85214         4.15219
     2017.21834        -3.36451         4.15059
     2017.22108         1.06612         4.11705
     2017.22381        -5.85025         4.25841
     2017.22655        -5.70562         4.24004
     2017.22929        -8.04298         4.10347
     2017.23203        -8.19935         4.14260
     2017.23477        -3.56772         4.11226
     2017.23750       -13.54309         4.13062
     2017.24024        -6.85346         4.12663
     2017.24298        -6.80383         4.12583
     2017.24572       -11.33320         4.12184
     2017.24846       -11.80556         4.13542
     2017.25119        -9.82993         4.14101
     2017.25393       -11.96830         4.12743
     2017.25667        -9.41267         4.14740
     2017.25941       -11.75504         4.15299
     2017.26214        -6.59041         4.14740
     2017.26488        -0.30578         4.21528
     2017.26762        -1.13415         4.12344
     2017.27036        -3.17851         4.12583
     2017.27310        -8.60388         4.14181
     2017.27583        -7.88725         4.15059
     2017.27857       -11.61362         4.14979
     2017.28131        -7.79799         4.12663
     2017.28405       -13.29536         4.14979
     2017.28679       -13.49473         4.13462
     2017.28952       -10.79209         4.12983
     2017.29226        -7.93846         4.14979
     2017.29500       -13.04783         4.12024
     2017.29774        -9.92320         4.13781
     2017.30047        -9.28157         4.13622
     2017.30321       -12.03794         4.12104
     2017.30595       -10.82931         4.13861
     2017.30869       -12.69367         4.12024
     2017.31143        -6.25604         4.09948
     2017.31416        -8.07941         4.13302
     2017.31690        -3.14978         4.12743
     2017.31964        -5.51015         4.22407
     2017.32238       -12.22252         4.29275
     2017.32512       -12.69989         4.12743
     2017.32785       -11.81726         4.16577
     2017.33059       -12.92262         4.14101
     2017.33333       -10.94199         4.10906
     2017.33607       -12.07236         4.08111
     2017.33880       -11.15073         4.13462
     2017.34154         3.25090         4.43970
     2017.34428        -6.23947         4.16017
     2017.34702       -11.54284         4.11545
     2017.34976        -7.52620         4.09229
     2017.35249       -11.12357         4.11305
     2017.35523       -10.24594         4.14500
     2017.35797        -5.81431         4.17615
     2017.36071       -11.50968         4.14420
     2017.36344        -5.26005         4.12104
     2017.36618        -8.75842         4.11066
     2017.36892        -6.65179         4.12344
     2017.37166        -4.16215         4.14420
     2017.37440        -5.56052         4.15379
     2017.37713        -6.40989         4.17215
     2017.37987       -10.16026         4.17774
     2017.38261       -11.77463         4.14021
     2017.38535        -9.82400         4.11864
     2017.38809        -9.09937         4.13462
     2017.39082        -8.16273         4.13062
     2017.39356         2.94790         4.18014
     2017.39630        -2.50247         4.11705
     2017.39904        -6.37984         4.10906
     2017.40177        -4.65621         4.11944
     2017.40451        -6.88658         4.27358
     2017.40725        -7.11995         4.12983
     2017.40999        -4.53132         4.12024
     2017.41273         0.02332         4.20490
     2017.41546       -10.20405         4.15858
     2017.41820        -4.93742         4.21129
     2017.42094        -8.18979         4.14740
     2017.42368        -3.90116         4.27199
     2017.42642        -9.94553         4.11944
     2017.42915        -5.55690         4.13302
     2017.43189        -1.02426         4.13302
     2017.43463        -0.84963         4.20091
     2017.43737        -4.42500         4.12903
     2017.44010        -2.31437         4.12184
     2017.44284        -5.45674         4.14500
     2017.44558        -3.86711         4.15698
     2017.44832        -6.22248         4.18174
     2017.45106         2.70115         4.22007
     2017.45379        -0.89721         4.23046
     2017.45653        -3.23558         4.32310
     2017.45927        -4.10695         4.14500
     2017.46201        -4.20332         4.16816
     2017.46475        -7.35169         4.15538
     2017.46748        -2.75206         4.27358
     2017.47022        -4.11643         4.19931
     2017.47296        -4.28379         4.23205
     2017.47570        -7.52216         4.12104
     2017.47843       -10.47753         4.11625
     2017.48117        -6.52290         4.16497
     2017.48391        -2.01427         4.19132
     2017.48665         4.26936         4.19691
     2017.48939        -4.03501         4.15538
     2017.49212        -6.79438         4.14740
     2017.49486        -1.58874         4.17136
     2017.49760        -1.75611         4.20570
     2017.50034        -2.40948         4.18573
     2017.50308         2.86615         4.15219
     2017.50581        -1.43422         4.14660
     2017.50855         1.11641         4.19851
     2017.51129        -4.57996         4.21688
     2017.51403        -1.99032         4.21608
     2017.51676        -0.13769         4.17375
     2017.51950        -5.81806         4.14021
     2017.52224         4.45557         4.21768
     2017.52498        -2.73080         4.19452
     2017.52772        -3.76617         4.27119
     2017.53045        -2.67854         4.13861
     2017.53319        -2.24291         4.17215
     2017.53593        -1.91427         4.20570
     2017.53867         2.75836         4.23205
     2017.54141         9.64599         4.13622
     2017.54414         0.12162         4.12424
     2017.54688         0.42525         4.13302
     2017.54962        -2.01212         4.25681
     2017.55236         0.21651         4.20330
     2017.55509        -0.20785         4.19771
     2017.55783         3.25078         4.15538
     2017.56057        -0.60159         4.18334
     2017.56331        -2.10696         4.15458
     2017.56605        -1.27033         4.13302
     2017.56878         0.71430         4.27838
     2017.57152         2.90493         4.18893
     2017.57426        -1.17543         4.18653
     2017.57700        -3.80080         4.14021
     2017.57974        -2.44817         4.12344
     2017.58247        -0.80954         4.18493
     2017.58521        -2.11891         4.24244
     2017.58795        -1.93028         4.24563
     2017.59069         0.98635         4.24244
     2017.59342        -2.55402         4.17295
     2017.59616        -0.38038         4.17056
     2017.59890        -2.48875         4.21289
     2017.60164         4.13288         4.22566
     2017.60438        -7.25549         4.23285
     2017.60711         0.35314         4.20730
     2017.60985        -0.19023         4.27758
     2017.61259         0.87440         4.28716
     2017.61533         8.12604         4.31511
     2017.61807         5.61667         4.22407
     2017.62080         2.61830         4.13941
     2017.62354         0.64993         4.15858
     2017.62628         1.18556         4.24962
     2017.62902         3.55619         4.38779
     2017.63175        -0.40218         4.19771
     2017.63449        -2.23355         4.14420
     2017.63723         0.52709         4.14181
     2017.63997         3.06772         4.18573
     2017.64271         4.01435         4.22487
     2017.64544         7.81298         4.24164
     2017.64818         5.84961         4.25921
     2017.65092         1.36724         4.12264
     2017.65366         3.51887         4.12104
     2017.65639         1.92951         4.17535
     2017.65913         2.53814         4.14660
     2017.66187         5.32177         4.14740
     2017.66461         6.09040         4.26080
     2017.66735         6.40203         4.23285
     2017.67008         5.54766         4.14580
     2017.67282         3.10629         4.26400
     2017.67556         4.22192         4.13462
     2017.67830         2.00856         4.13701
     2017.68104         4.10619         4.12184
     2017.68377         9.08482         4.25601
     2017.68651        10.91545         4.32869
     2017.68925         9.03808         4.25841
     2017.69199         3.74371         4.18174
     2017.69472         5.39934         4.13542
     2017.69746         4.66198         4.19292
     2017.70020        10.89261         4.27119
     2017.70294         8.87424         4.37341
     2017.70568         4.90187         4.29275
     2017.70841         7.02950         4.09868
     2017.71115         4.54913         4.17455
     2017.71389         9.17176         4.17535
     2017.71663         9.50839         4.13542
     2017.71937         8.51303         4.13142
     2017.72210         5.08166         4.13861
     2017.72484         3.03329         4.13222
     2017.72758         7.61892         4.13062
     2017.73032         4.79155         4.13142
     2017.73305         5.77418         4.14260
     2017.73579         0.51681         4.13941
     2017.73853         1.53145         4.15379
     2017.74127         3.79208         4.13701
     2017.74401         8.70771         4.11705
     2017.74674         2.99434         4.18413
     2017.74948         4.85997         4.13781
     2017.75222         3.44860         4.12743
     2017.75496         1.74123         4.11785
     2017.75770         0.32086         4.21528
     2017.76043        -1.11750         4.12663
     2017.76317         4.36813         4.14819
     2017.76591         8.48276         4.13781
     2017.76865         5.33339         4.13302
     2017.77138         0.37702         4.14979
     2017.77412         4.48265         4.17295
     2017.77686         2.54928         4.14181
     2017.77960         2.45192         4.10347
     2017.78234        -0.44345         4.10107
     2017.78507         0.76618         4.10986
     2017.78781        -0.37819         4.11146
     2017.79055        -0.15956         4.18653
     2017.79329         7.45007         4.25362
     2017.79603         6.15670         4.11625
     2017.79876        10.30433         4.26640
     2017.80150         9.59297         4.20969
     2017.80424         7.38560         4.12344
     2017.80698         3.01823         4.21927
     2017.80971        -0.38914         4.13222
     2017.81245        -7.85351         4.11146
     2017.81519        -3.98388         4.23365
     2017.81793        -5.94625         4.13941
     2017.82067        -5.83661         4.23605
     2017.82340        -3.72898         4.13542
     2017.82614        -3.72035         4.15618
     2017.82888        -2.07472         4.09948
     2017.83162         5.57691         4.14819
     2017.83436         1.64054         4.16097
     2017.83709         3.03517         4.27758
     2017.83983        -2.63620         4.16976
     2017.84257         0.58444         4.16577
     2017.84531        -0.90893         4.11146
     2017.84804        -5.52130         4.14101
     2017.85078        -2.55167         4.19452
     2017.85352         0.89196         4.19372
     2017.85626         2.65059         4.25282
     2017.85900         1.47422         4.22966
     2017.86173         2.80086         4.24723
     2017.86447        -0.31451         4.18094
     2017.86721         4.52812         4.18493
     2017.86995         1.06975         4.12264
     2017.87269         5.46338         4.10666
     2017.87542         6.90001         4.10826
     2017.87816         4.31164         4.13062
     2017.88090         4.32628         4.15139
     2017.88364         3.48391         4.11785
     2017.88637         6.72854         4.11545
     2017.88911         2.68117         4.12823
     2017.89185        -3.94020         4.21927
     2017.89459         2.80143         4.21528
     2017.89733         6.58706         4.18573
     2017.90006         0.51469         4.11465
     2017.90280         2.29933         4.21448
     2017.90554         4.82196         4.14340
     2017.90828         2.57659         4.13622
     2017.91102        -4.92878         4.20969
     2017.91375        -2.52415         4.19532
     2017.91649        -3.87652         4.12663
     2017.91923         1.08711         4.14101
     2017.92197        -0.94125         4.12663
     2017.92470        -1.16362         4.16097
     2017.92744        -7.49799         4.18254
     2017.93018        -9.07136         4.14021
     2017.93292        -6.20273         4.14340
     2017.93566        -4.23210         4.15618
     2017.93839        -3.46747         4.15379
     2017.94113        -4.98684         4.16257
     2017.94387        -1.86520         4.17056
     2017.94661        -1.89157         4.21848
     2017.94935         2.19606         4.15858
     2017.95208        -3.92931         4.23924
     2017.95385        -2.23496         7.88828
     2017.96405         3.66056         7.81959
     2017.96478         3.65253         8.11190
     2017.96947        -0.22025         7.41308
     2017.97125        -4.83089         4.10267
     2017.97399        -0.30026         4.11625
     2017.97672        -4.73963         5.88127
     2017.97946        -4.11200         4.14740
     2017.98220        -4.92837         4.08909
     2017.98494        -5.55473         8.01526
     2017.98767        -9.40810         9.69403
     2017.98909       -14.30122       102.04128
     2017.99684       -17.31994         7.29249
     2017.99863        -4.58958         4.08191
     2018.00136        -9.96195         4.13861
     2018.00410       -12.84031         5.42125
     2018.00684        -6.87668         5.06824
     2018.00958        -7.85205         4.12104
     2018.01232        -6.97142         4.10986
     2018.01505        -4.04179         4.09868
     2018.02161         0.69991         9.14935
     2018.02220         0.73069         9.00719
     2018.02701        -2.06793         7.89467
     2018.02874        -1.35563         4.10666
     2018.03076       -10.03796         6.37643
     2018.03536        -8.23185        10.66519
     2018.03696       -13.79874         5.83734
     2018.03969       -12.34311         4.10666
     2018.04243       -13.97048         4.12104
     2018.04517       -10.38184         4.13701
     2018.04791        -8.72321         5.23436
     2018.05065        -1.47858         6.83246
     2018.05338        -5.73995         4.11465
     2018.05612        -6.03032         4.14101
     2018.05886       -13.36769         9.13977
     2018.06133        -7.70842         5.07543
     2018.06799        -4.91158         6.97702
     2018.06981       -11.24916         5.18884
     2018.07255       -12.65953         5.68400
     2018.07432       -17.23919         8.35948
     2018.07915         2.18723        15.82687
     2018.08169       -10.38641         7.13275
     2018.08350        -7.07901         4.41654
     2018.08622       -12.30139         4.66173
     2018.09010        -0.22526        12.71054
     2018.09268       -13.90883         7.65427
     2018.09445        -9.10248         4.55072
     2018.09719        -3.53485         5.13453
     2018.09993        -7.86022         4.56110
     2018.10266       -12.57159         4.54832
     2018.10540        -7.39196         7.00178
     2018.10814        -0.93232         4.48922
     2018.11088        -6.42469         4.50919
     2018.11362        -7.81006         4.76955
     2018.11635        -8.22143         4.54672
     2018.11909        -7.57880         4.72881
     2018.12183        -5.09017         5.35017
     2018.12457        -7.02754         4.82306
     2018.12731       -13.67490         5.17127
     2018.13004        -6.18727         5.46517
     2018.13278         0.07236         5.45798
     2018.13552        -6.24301         5.55702
     2018.13826        -4.94138         5.34138
     2018.14099        -9.98675         5.97790
     2018.14373       -10.05712         6.03780
     2018.14647        -4.73248         6.02343
     2018.14921         1.48015         8.29958
     2018.15195        -2.57222         6.12486
     2018.15468        -2.91359         6.24465
     2018.15742        -4.64596         6.48744
     2018.16016        -2.87933         6.48026
     2018.16289        -8.87671         9.04552
     2018.16677        -5.93257        10.19478
     2018.16837        -9.25043         6.39161
     2018.17111        -4.90280         6.31494
     2018.17385       -10.15717         6.33730
     2018.17659        -7.96454         6.55293
     2018.17932        -5.24191         6.04100
     2018.18201        -9.77934         9.16373
     2018.18486        -2.22657         6.90993
     2018.18754        -5.90001         6.00825
     2018.19028       -11.88338         6.00825
     2018.19301        -9.82575         5.98669
     2018.19575        -1.54512         6.30136
     2018.19849         4.37851         8.61825
     2018.20123         3.81414         7.12796
     2018.20397         2.57777         6.06975
     2018.20670         0.69440         7.03452
     2018.20944        -3.48596         6.52977
     2018.21218        -8.51933         6.39161
     2018.21492       -16.86470         6.21191
     2018.21765         0.50893         6.13524
     2018.22135         1.44583        10.07259
     2018.22398        -0.67968         6.62960
     2018.22587        -9.05018         8.51602
     2018.22861        -4.91854         6.28938
     2018.23134       -10.04791         6.28698
     2018.23408       -10.83028         6.55293
     2018.23682        -7.17065         6.24625
     2018.23956        -9.47202         6.18316
     2018.24230        -2.49139         6.44991
     2018.24503        -2.65876         6.26941
     2018.24777         5.14287         6.53297
     2018.25051         0.82251         6.33171
     2018.25325        -5.09086         6.64158
     2018.25598         2.47677         6.38202
     2018.25872        -7.96860         7.86112
     2018.26247        -1.92463         8.64780
     2018.26420         3.71366         8.34111
     2018.26694        -8.61071         6.87000
     2018.26967        -8.29607         6.27420
     2018.27241        -7.57344         7.18547
     2018.27515         3.01819         6.34768
     2018.27789         1.57782         8.05360
     2018.28062       -11.53955         6.75419
     2018.28336        -5.01292         6.65676
     2018.28610         0.59171         6.75340
     2018.28884        -0.74366         6.85642
     2018.29158         2.13398         7.09602
     2018.29431        -7.31439         6.35167
     2018.29705        -7.23976         6.15201
     2018.29979        -6.44613         5.99627
     2018.30253        -9.65650         6.26222
     2018.30527        -1.93587         6.09531
     2018.30800        -5.33124         6.03701
     2018.31074        -9.89660         5.99308
     2018.31348        -3.61797         6.16080
     2018.31622        -5.39234         6.04020
     2018.31895         1.04029         6.02822
     2018.32169        -4.94908         6.76458
     2018.32443        -1.20545         5.99548
     2018.32717       -10.23782         6.18156
     2018.32991        -3.73719         6.40199
     2018.33264        -8.11055         6.07374
     2018.33538       -10.56992         6.15121
     2018.33812       -13.08129         6.12486
     2018.34086        -7.87666         5.99388
     2018.34360        -7.16303         5.88526
     2018.34633        -9.65340         6.33410
     2018.34907        -7.15677         5.89325
     2018.35181        -8.28513         6.12246
     2018.35455         1.47750         5.93797
     2018.35728        -5.93187         5.73591
     2018.36002        -7.31824         5.82776
     2018.36276        -8.66761         5.81817
     2018.36550        -4.81998         5.75348
     2018.36824        -7.86735         5.73032
     2018.37096        -5.10573         5.78463
     2018.37371         5.26892         5.84613
     2018.37645        -5.23745         6.54894
     2018.37919        -4.82682         6.64717
     2018.38193        -4.32019         5.63129
     2018.38466         0.71144         5.60653
     2018.38740        -2.95193         5.67202
     2018.39014         4.34970         5.58098
     2018.39288         5.89034         5.58497
     2018.39561         2.46597         5.44041
     2018.39835         9.12360         5.40128
     2018.40109         0.90323         5.33419
     2018.40383        -3.50714         5.49951
     2018.40657        -3.29551         5.39808
     2018.40930         0.68612         5.88686
     2018.41204         6.75475         5.23117
     2018.41478        -1.39461         5.47396
     2018.41752        -4.16998         5.42045
     2018.42026        -5.34835         5.55462
     2018.42299        -2.11372         5.27509
     2018.42573         0.95491         5.21599
     2018.42847         0.93754         5.14252
     2018.43121         1.79917         5.09779
     2018.43394        -3.51619         5.14651
     2018.43668        -3.14856         5.30384
     2018.43942        -1.91293         5.20401
     2018.44216         1.91470         5.02272
     2018.44490         2.39733         5.23835
     2018.44763         2.76996         5.12734
     2018.45037        -4.06441         5.09140
     2018.45311        -0.01277         5.06425
     2018.45585         0.35786         5.19443
     2018.45859         3.96649         5.05227
     2018.46132         1.95612         5.03390
     2018.46406         2.65075         5.03709
     2018.46680         6.50838         5.09699
     2018.46954        -1.61899         5.04189
     2018.47227         7.82964         5.00754
     2018.47501         6.34928         4.99237
     2018.47775         6.58591         4.99157
     2018.48049        -2.31646         4.93567
     2018.48323        -3.15783         4.96042
     2018.48596        -1.94420         5.02352
     2018.48870         5.04943         5.07463
     2018.49144         2.52106         4.82625
     2018.49418         5.32170         4.93407
     2018.49692         7.12833         5.01393
     2018.49965         2.82296         4.86938
     2018.50239         0.93559         4.79510
     2018.50513        -4.04678         4.91889
     2018.50787         1.97785         4.97640
     2018.51060         3.97548         5.09859
     2018.51334        -1.90989         5.09540
     2018.51608        -2.57525         4.95803
     2018.51882         4.88638         5.06345
     2018.52156        -2.21599         5.22398
     2018.52429        -3.64636         5.06585
     2018.52703         3.21727         5.02352
     2018.52977         0.52890         5.05866
     2018.53251        -0.32347         4.98199
     2018.53525        -0.34583         5.00355
     2018.53798         1.56080         4.98598
     2018.54072         3.49343         4.84063
     2018.54346         9.61506         5.07782
     2018.54620         3.84869         4.93646
     2018.54893        -2.72068         4.93726
     2018.55167         6.67395         4.89014
     2018.55441        -2.73742         4.99556
     2018.55715        -3.35478         4.89493
     2018.55989         3.62885         5.16088
     2018.56262        -1.34652         5.05067
     2018.56536        -0.02589         4.98199
     2018.56810         1.26874         4.92848
     2018.57084         5.71637         4.97160
     2018.57357        -7.41900         5.05866
     2018.57631        -1.47436         5.19682
     2018.57905        -0.52073         5.32940
     2018.58179         5.54090         5.03390
     2018.58453        14.86753         5.08342
     2018.58726         6.04216         4.90931
     2018.59000         5.35379         4.98039
     2018.59274         3.87042         5.04748
     2018.59548         2.99105         5.03390
     2018.59822         0.02169         5.09300
     2018.60095         3.67432         4.98997
     2018.60369         8.89995         5.03390
     2018.60643         4.38958         4.99876
     2018.60917         8.42521         5.13613
     2018.61190         5.84684         5.01313
     2018.61464         7.63547         5.04668
     2018.61738         2.19911         5.10099
     2018.62012         7.29974         5.12574
     2018.62286        11.02937         5.41246
     2018.62559         5.53900         5.51469
     2018.62833         2.48563         5.36214
     2018.63107         6.94526         5.59695
     2018.63381         2.39989         6.34928
     2018.63655         8.09852         5.38850
     2018.63928         6.58816         5.75588
     2018.64202        13.00179         5.78064
     2018.64476        12.41742         5.36214
     2018.64750         5.28005         5.46837
     2018.65023        11.19168         5.74869
     2018.65297         9.18831         6.50501
     2018.65571         9.79394         5.42604
     2018.65845         7.48058         5.42923
     2018.66119        17.91121         5.54983
     2018.66392         9.68384         5.34457
     2018.66666         5.59147         5.44680
     2018.66940         5.41410         5.35256
     2018.67214         5.00573         5.34058
     2018.67488         6.93036         5.34777
     2018.67761         2.74899         5.22637
     2018.68035         7.05563         5.30544
     2018.68309         2.85926         5.37013
     2018.68583        12.61089         5.35895
     2018.68856        12.38752         5.63369
     2018.69130         8.89615         5.48274
     2018.69404        10.10778         5.74470
     2018.69678         5.67841         5.44680
     2018.69952         9.81505         5.43722
     2018.70225         6.25568         5.33259
     2018.70499         1.87331         5.51309
     2018.70773        10.16294         5.73911
     2018.71047        -0.05443         5.51229
     2018.71321         2.50320         5.48114
     2018.71594         9.47883         5.41406
     2018.71868        -1.87353         5.28947
     2018.72142         5.08010         5.56181
     2018.72416         2.97173         5.68959
     2018.72689         3.68436         5.41326
     2018.72963         3.11399         5.77265
     2018.73237         1.21962         5.44600
     2018.73511         2.15825         5.46118
     2018.73785         3.63388         5.39249
     2018.74058         3.64452         5.63768
     2018.74332         3.91715         5.46597
     2018.74606         6.69378         5.44920
     2018.74880         7.94941         5.89724
     2018.75154        15.58404         5.77105
     2018.75427        13.73267         5.35017
     2018.75701         7.07830         5.57299
     2018.75975         8.65794         5.37173
     2018.76249         5.57257         6.22309
     2018.76522         5.04120         5.99148
     2018.76796         6.03283         8.10631
     2018.77070        17.23246         6.85562
     2018.77344        14.85709         6.80930
     2018.77618         9.75072         5.50830
     2018.77891         8.85935         5.62011
     2018.78165        17.17499         5.66483
     2018.78439        11.83262         5.37972
     2018.78713         4.60725         5.53226
     2018.78987         1.62788         5.72473
     2018.79260         3.76951         5.59775
     2018.79534        10.54714         5.54663
     2018.79808         3.55977         5.55622
     2018.80082         5.51941         5.50750
     2018.80355         9.57804         5.51708
     2018.80629         7.49667         5.79182
     2018.80903         7.35730         5.78862
     2018.81177         5.17093         6.76697
     2018.81335        12.06703        10.60928
     2018.81822        17.89949         7.63191
     2018.81998         8.26382         6.84684
     2018.82272        10.79346         7.78366
     2018.82546        11.68409         6.05138
     2018.82820         6.58772         5.90203
     2018.83093         4.08135         7.65427
     2018.83242        10.53132        15.28060
     2018.83729        17.92978         7.06647
     2018.83909        18.55317         6.87319
     2018.84276        14.07504         6.87958
     2018.84462        12.88551         6.06815
     2018.84736         6.99814         6.49064
     2018.85010         6.03077         6.89715
     2018.85284         2.71340         5.92360
     2018.85557        -2.37897        11.60840
     2018.85831         3.73566         6.35647
     2018.86105         2.89729         6.89715
     2018.86379        -0.32407         7.10880
     2018.86653        12.27856         6.64877
     2018.86920         1.79411         9.55027
     2018.87292        12.91804         7.00497
     2018.87474         5.52445         6.75340
     2018.87748         4.86308         6.17437
     2018.88021         7.00071         6.32532
     2018.88295         7.78535         6.48744
     2018.88569        10.04898         6.50422
     2018.88830        20.18744         8.03683
     2018.89211        14.09849         7.45781
     2018.89483         5.72709         9.90168
     2018.89754         5.09569         7.35159
     2018.89938         1.35913         7.21102
     2018.90083        21.24606        42.55693
     2018.90879         5.19161        15.96504
     2018.91132        18.88698        14.35336
     2018.91429         8.26690        17.86343
     2018.91678         4.55221         8.44015
     2018.91951         2.31083         7.56962
     2018.92128         1.62118         7.46340
     2018.92385         2.28359         9.13258
     2018.92771         1.41471         7.46260
     2018.92950         8.69908         6.61124
     2018.93223         4.95170         6.79093
     2018.93593         2.58961         8.14704
     2018.94682         3.54005         7.02733
     2018.94973         9.09692         9.05830
     2018.95135        12.86007         9.21963
     2018.95519        15.09416         8.68693
     2018.96078         5.82157        11.04934
     2018.96344        18.71710         9.75233
     2018.96501         1.42418         7.90265
     2018.97148         9.74976         7.10241
     2018.97420         0.74637         7.13116
     2018.97999         6.45805        13.87657
     2018.98244        -6.66970         6.98500
     2018.98803        -4.19729         8.77398
     2018.98964        -9.52815        10.27864
     2018.99356        -3.48095         9.39693
     2018.99520        -0.68377         7.22540
     2018.99794       -11.16014         6.83885
     2019.00068       -10.79951         7.92262
     2019.00342        -4.59688         8.06318
     2019.00987        -0.64032         7.80123
     2019.01163         0.74902         8.35389
     2019.01437         9.43965         7.33162
     2019.01711         1.45928         7.34919
     2019.01971       -16.96827        10.30739
     2019.02366        -0.44603         9.18928
     2019.02903        -3.46690         7.97693
     2019.03080        -5.61056         8.01526
     2019.03227        -3.58760        15.59047
     2019.03999         0.27263         7.96096
     2019.04278        -6.46766         9.10542
     2019.04848       -17.91110        24.79173
     2019.05635        -7.37967         7.21741
     2019.05688        -3.47997        21.87905
     2019.06189        -8.45832         7.93780
     2019.06365        -6.26699         7.53687
     2019.06639       -10.40935         7.35079
     2019.06913        -5.62172         8.13506
     2019.07186        -0.91309         9.04872
     2019.07460        -5.47546         7.19984
     2019.07734        -0.00783         6.40359
     2019.08008        -5.02620         7.18467
     2019.08389        -2.66814         9.21803
     2019.08932         2.18006         8.38105
     2019.09103         2.94633        10.05981
     2019.09377         3.36596         7.84515
     2019.09650         5.35159         7.37794
     2019.09924        -2.71978         6.44432
     2019.10198        -9.66015         6.22149
     2019.10472         0.56348         7.41867
     2019.10746        -2.02488         7.59278
     2019.11019        -2.08925         7.62472
     2019.11293         2.04538         7.26693
     2019.11567         6.84301         8.40421
     2019.11841        15.53064         6.92750
     2019.12115        10.67727         6.40199
     2019.12388         7.87590         9.33064
     2019.12662         4.22653         7.03532
     2019.12936        -2.80383         6.55613
     2019.13210        -2.70720         6.28778
     2019.13483        -3.29657         6.65117
     2019.13757         2.21606         6.68152
     2019.14031        -0.13031         6.41157
     2019.14305         2.96132         6.58967
     2019.14579        -2.88205         6.35567
     2019.14852         1.99059         6.15521
     2019.15126        -0.48478         6.30375
     2019.15400        -8.88815         5.94676
     2019.15674        -3.80452         6.92990
     2019.15948        -4.97689         7.05928
     2019.16221        -9.67826         6.29896
     2019.16495        -5.49363         6.09690
     2019.16769        -9.88500         5.86929
     2019.17043       -10.11836         5.98988
     2019.17316        -7.73273         5.99947
     2019.17590        -1.22210         6.48185
     2019.17864        -1.34947         6.79333
     2019.18138         0.53016         6.15521
     2019.18412       -12.05821         6.02103
     2019.18685        -4.19058         5.73671
     2019.18959        -3.72194         5.78463
     2019.19233        -3.88731         6.52578
     2019.19507        -4.24468         5.67601
     2019.19780        -9.20505         5.44441
     2019.20054        -8.79042         5.72074
     2019.20328       -11.45079         5.73751
     2019.20602        -7.72916         5.59934
     2019.20876        -7.74753         5.37892
     2019.21149        -8.71989         5.23117
     2019.21423        -5.12226         5.05706
     2019.21697        -3.00763         5.08421
     2019.21971        -4.22200         5.26790
     2019.22245        -0.35137         5.33020
     2019.22518        -4.53974         5.34218
     2019.22792        -0.47811         5.77026
     2019.23066        -4.89347         5.60733
     2019.23340        -3.44884         5.47955
     2019.23613        -6.96721         6.94507
     2019.23887        -8.87258         6.39081
     2019.24161        -9.57195         5.81418
     2019.24435         0.68168         6.06895
     2019.24709        -7.11369         5.70956
     2019.24982        -0.48406         5.70956
     2019.25256         2.00158         7.15991
     2019.25530        -5.63779         5.97631
     2019.25804         1.63084         6.49224
     2019.26078        -5.71753         7.59438
     2019.26351        -3.49790         6.49304
     2019.26625        -5.64127         6.43873
     2019.26899        -6.05464         6.45710
     2019.27173        -3.92800         6.20073
     2019.27446        -4.48237         6.10090
     2019.27720        -1.01874         6.39320
     2019.27994        -0.77511         6.69430
     2019.28268        -0.19948         6.12566
     2019.28542        -2.75985         6.10729
     2019.28815        -4.45922         6.13604
     2019.29089        -1.76058         6.38761
     2019.29363        -5.40295         6.24066
     2019.29637        -1.87032         6.20233
     2019.29911        -0.96169         6.91552
     2019.30184        -3.72606         5.94117
     2019.30458       -10.79443         6.00266
     2019.30732        -5.98980         6.31094
     2019.31006        -7.59817         6.03621
     2019.31279        -6.86453         5.94596
     2019.31553         0.46210         6.20392
     2019.31827        -0.68027         6.04260
     2019.32101        -8.02464         6.07215
     2019.32375       -16.63001         6.02982
     2019.32648        -1.97538         6.04739
     2019.32922        -7.45475         5.97551
     2019.33196       -10.83611         6.35008
     2019.33470        -6.04748         6.34449
     2019.33744       -11.12385         5.95474
     2019.34017        -8.79222         5.92440
     2019.34291        -4.90659         5.91880
     2019.34565        -1.11696         6.14163
     2019.34839        -5.65933         5.93717
     2019.35112        -8.71270         5.97471
     2019.35386        -8.58406         5.95714
     2019.35660        -9.08343         6.01384
     2019.35934        -4.01880         5.83654
     2019.36208        -5.11617         5.99627
     2019.36481        -5.54054         5.90443
     2019.36755        -7.45591         6.12086
     2019.37024        -3.66834         6.75260
     2019.37387        -1.20652         6.91951
     2019.37577        -5.89701         6.80611
     2019.37850        -3.09438         5.98270
     2019.38124         1.19325         6.22708
     2019.38398         0.98488         6.27660
     2019.38672        -7.13149         6.31653
     2019.38945        -6.92386         6.32692
     2019.39219        -6.57923         6.27500
     2019.39493        -5.32459         6.78215
     2019.39767        -6.38296         6.44831
     2019.40041        -2.42033         6.06176
     2019.40314        -3.83970         6.32851
     2019.40588        -3.75907         6.08173
     2019.40862        -3.36544         6.06576
     2019.41136        -2.84581         6.12965
     2019.41410        -1.75717         6.07933
     2019.41683        -8.58554         6.39161
     2019.41957        -7.50591         6.51540
     2019.42231        -9.42428         6.16479
     2019.42505         2.20435         6.36685
     2019.42778         4.22998         6.66155
     2019.43052         6.84161         6.13125
     2019.43326        -6.72176         6.21990
     2019.43600        -2.08012         6.38202
     2019.43874       -10.38449         6.19035
     2019.44147        -8.48986         6.24705
     2019.44421        -6.45023         6.65277
     2019.44695        -3.03260         6.53616
     2019.44969         5.59603         6.31893
     2019.45243         1.19566         6.44192
     2019.45516         1.68030         6.43234
     2019.45790        -2.07707         6.30375
     2019.46064        -1.47844         6.30216
     2019.46338        -6.11581         7.03133
     2019.46611         5.18482         6.35407
     2019.46885         0.78845         6.31174
     2019.47159         5.58208         6.16559
     2019.47433        -1.43729         6.24865
     2019.47707         2.89535         6.34049
     2019.47980         5.11298         6.09131
     2019.48254         2.18061         6.48824
     2019.48528        -4.02776         7.10081
     2019.48802        -6.45613         6.45869
     2019.49076        -3.41050         6.38522
     2019.49349        -0.75687         6.72065
     2019.49623        -0.22923         6.39320
     2019.49897        -2.79760         6.45630
     2019.50171         9.69703         6.42675
     2019.50444         5.77166         6.14482
     2019.50718        -0.17971         6.29976
     2019.50992        10.81292         6.25025
     2019.51266         3.83755         6.32771
     2019.51540         8.81418         6.42515
     2019.51813         5.20582         6.32931
     2019.52087         1.88545         6.73902
     2019.52361        -1.42692         6.42196
     2019.52635        -0.41529         6.17996
     2019.52908        -3.83166         6.55054
     2019.53182        -4.13803         7.09761
     2019.53456       -10.92140         6.88358
     2019.53730         0.45924         6.84284
     2019.54004         2.70887         6.51300
     2019.54277         5.64450         6.43713
     2019.54551        -8.87887         6.62481
     2019.54825         1.63676         6.36365
     2019.55099         2.42839         6.42595
     2019.55373         7.79302         6.92990
     2019.55646         8.29365         6.53856
     2019.55920        -9.47571         7.05449
     2019.56194        -0.09108         6.31813
     2019.56468         2.65155         6.60165
     2019.56741         4.62818         6.61603
     2019.57015        -2.91219         6.31733
     2019.57289        -1.75856         6.51300
     2019.57563         5.21507         6.39640
     2019.57837         4.68371         6.40598
     2019.58110         1.89734         6.38122
     2019.58384         9.75597         7.06727
     2019.58658         1.25260         6.12805
     2019.58932         4.25923         6.28299
     2019.59206        13.54186         6.15201
     2019.59479        13.65949         6.42595
     2019.59753         7.35413         6.15760
     2019.60027         6.21576         6.06975
     2019.60301         2.23939         6.78295
     2019.60574         7.27802         6.58408
     2019.60848        -9.86235         6.83007
     2019.61122        11.30628         6.04579
     2019.61396         5.65291         6.00825
     2019.61670         4.12554         6.10010
     2019.61943         0.79218         6.01225
     2019.62217        18.61481         6.09850
     2019.62491         6.38244         5.95554
     2019.62765        14.49807         6.03461
     2019.63039        17.01870         6.04579
     2019.63312        10.31833         6.02582
     2019.63586         6.74096         6.30935
     2019.63860        14.67160         6.33091
     2019.64134         3.34623         6.01624
     2019.64407        10.73286         6.17038
     2019.64681         6.73149         6.12965
     2019.64955         4.01712         6.06895
     2019.65229         7.40075         6.06416
     2019.65503         5.21238         6.16000
     2019.65776         3.83601         6.65197
     2019.66050        17.13365         7.10400
     2019.66324         8.30828         6.39800
     2019.66598        14.50991         6.29098
     2019.66872        10.55254         6.21351
     2019.67145         5.44317         6.21031
     2019.67419         4.83780         6.25743
     2019.67693         7.23943         6.73343
     2019.67967         5.38707         7.53368
     2019.68240         5.83670         6.20951
     2019.68514        13.23233         7.21901
     2019.68788         6.30696         7.13435
     2019.69062        10.72159         6.82288
     2019.69336         6.08722         6.10649
     2019.69609         1.39285         6.31334
     2019.69883         9.64748         6.33490
     2019.70157         8.59612         6.86441
     2019.70431        10.00675         6.66954
     2019.70705         8.14438         7.48256
     2019.70978        11.12301         6.63759
     2019.71252        16.04664         7.25974
     2019.71526         6.59227         6.84843
     2019.71800        10.65090         6.54095
     2019.72073         7.22054         6.52338
     2019.72347         2.88617         6.23906
     2019.72621         6.73880         6.88837
     2019.72982        12.60058         6.90913
     2019.73169        12.45306         6.37883
     2019.73442        22.72269         6.82368
     2019.73716        17.47632         6.29896
     2019.73990        18.11495         8.71009
     2019.74264        14.82259         8.07357
     2019.74538         9.19022         7.27971
     2019.74811         5.79885         6.52418
     2019.75085         8.54548         6.40758
     2019.75359        10.78411         7.33002
     2019.75633        10.12174         7.35079
     2019.75906         9.12137         6.33570
     2019.76180         6.50101         6.23188
     2019.76454        13.56164         7.08723
     2019.76728         9.71027         6.52019
     2019.77002         7.77290         6.97862
     2019.77275         0.96553         6.33650
     2019.77549         5.24616         6.28539
     2019.77823        10.19179         6.37244
     2019.78097         8.60042         9.36339
     2019.78371        13.67106         6.36365
     2019.78644         6.28269         6.59686
     2019.78916        20.41729         8.40580
     2019.79285        20.12119         7.31565
     2019.79465        19.65658         6.44032
     2019.80095        16.34093         7.24457
     2019.80393         8.70188         9.95040
     2019.80649        14.47327         6.82128
     2019.80835         8.66774         6.38681
     2019.81108         4.82037         6.52179
     2019.81382        18.69000         6.43793
     2019.81656         9.91163         6.51620
     2019.81930         8.66626         6.70068
     2019.82203         8.29889         7.06247
     2019.82477         7.12353         6.26222
     2019.82751         4.16516         6.23188
     2019.83025         7.54579         7.15592
     2019.83299         6.45942         6.27021
     2019.83572         9.83605         6.42675
     2019.83846        17.31068         6.45550
     2019.84120         9.74931         6.68152
     2019.84394         9.13595         6.45710
     2019.84668         5.83258         6.45710
     2019.84941        10.67321         6.48744
     2019.85215        10.01784         6.63120
     2019.85359         0.32474        33.20872
     2019.85868         6.62850         8.69332
     2019.86036         8.04473         7.31884
     2019.86424         4.91588        10.16364
     2019.86969        14.54110        12.98208
     2019.87519         3.86639        12.10915
     2019.87784         4.23991         8.30198
     2019.87823        46.10443        24.68551
     2019.88338        18.16327         9.51433
     2019.88501        14.14842         6.76058
     2019.88774         6.24005         7.05449
     2019.89048        11.22968         7.48975
     2019.89322        49.20131        48.45737
     2019.89596         9.01394         7.89147
     2019.89869        10.05956         7.00018
     2019.90249        12.87061         8.28361
     2019.90415        13.79480         8.70530
     2019.90794         8.75383         7.99610
     2019.90965         7.08510         6.51939
     2019.91238         5.90173         6.70707
     2019.91383        -1.22135        28.06301
     2019.92422         6.10743        10.42480
     2019.93521         7.32700         7.02414
     2019.93702         5.98141         6.64318
     2019.93962         0.27086        10.74985
     2019.94347         2.33996         8.99840
     2019.94899       -12.75771         9.27713
     2019.95456        13.15167        14.00275
     2019.95722         6.40720        15.98660
     2019.95990        -0.65425         8.51362
     2019.96261         4.26935         7.25814
     2019.96427        -6.70945        12.69057
     2019.96811         6.05364         8.08075
     2019.97361         0.95493        11.74337
     2019.98178         1.37677         7.39152
     2019.99284         7.52144        10.17242
     2020.00000         5.42493        10.78179
     2020.00273         1.29656         7.43385
     2020.00646         1.36651         8.11669
     2020.00821         8.44583         7.48895
     2020.01082         8.84029        10.35292
     2020.01759        -7.72174        13.22806
     2020.02020        -1.82127         8.95608
     2020.02293        -2.77864         9.50155
     2020.02334        16.58590        22.86379
     2020.02841         1.84763         8.55755
     2020.03125         3.98239        10.97906
     2020.03383       -12.24719         7.87151
     2020.03656        -1.14757         7.29728
     2020.03833        -1.97023         6.69669
     2020.04210        -2.77222         8.31316
     2020.04380        -2.85497         8.03443
     2020.04654        -7.43334         8.52720
     2020.05031        -3.41533         8.27163
     2020.05201        -3.21107         7.66226
     2020.05474         5.07055         9.43607
     2020.05846       -22.29953         8.36028
     2020.06417         2.24005        12.36951
     2020.06687        -1.82237        15.81889
     2020.07223         0.30473         8.36667
     2020.07259        22.45921       123.53059
     2020.08042        -3.88740         8.13586
     2020.08213         5.09687        15.65836
     2020.08482        24.87543        15.04100
     2020.08851         2.65033         6.76218
     2020.09034         3.12677         6.90274
     2020.09290        -3.27584         9.38894
     2020.09957        -3.90000         8.15663
     2020.10130        -6.59971         7.63830
     2020.10403         0.09792         6.94667
     2020.10677        -7.26545         6.12486
     2020.10951        -4.13281         6.45071
     2020.11225         1.00282         6.25663
     2020.11498        -3.33755         6.20073
     2020.11772        -1.83092         6.44991
     2020.12046        -1.86129         7.11119
     2020.12320        -2.35066         6.17198
     2020.12594        -0.03803         7.04091
     2020.12867        -5.24140         6.16719
     2020.13141        -4.69076         6.17517
     2020.13415        -6.55713         6.09291
     2020.13689        -1.45150         6.18635
     2020.13963         0.94313         6.19833
     2020.14236        -0.80624         6.31254
     2020.14510        16.53039         8.66696
     2020.14784        -3.47898         6.29177
     2020.15058        -6.75634         6.31494
     2020.15331        -2.79171         6.82288
     2020.15605        -0.47108         6.35247
     2020.15879         1.05255         6.59287
     2020.16153        -1.03382         6.32692
     2020.16427         3.69081         6.30375
     2020.16700         7.83944         6.33330
     2020.16974         2.95708         6.49623
     2020.17248         1.96471         6.31893
     2020.17522        -3.38866         6.24785
     2020.17796         4.50797         7.48815
     2020.18069         3.75260         9.94321
     2020.18343        -2.13577         6.44751
     2020.18617        -4.35514         6.44991
     2020.18891        -0.80851         6.80850
     2020.19164         3.00813         7.14553
     2020.19438       -10.73824         6.26302
     2020.19712        -1.68661         6.73902
     2020.19986        -3.90198         7.37794
     2020.20260       -10.44035         6.38761
     2020.20533        -3.02672         6.30535
     2020.20807         2.00191         6.32053
     2020.21081       -12.01245         6.31573
     2020.21355        -8.95582         6.97542
     2020.21629        -5.71819         6.74541
     2020.21902        -3.26856         6.51380
     2020.22176        -2.39493         6.32452
     2020.22450         3.81470         6.64957
     2020.22724        -2.28467         6.50501
     2020.22997        -5.05804         6.97542
     2020.23271         0.49060         6.41557
     2020.23545         0.40823         6.34289
     2020.23819         0.74286         6.41636
     2020.24093        -1.22251         6.48744
     2020.24366         4.88012         7.30127
     2020.24640        -4.14925         6.67752
     2020.24914        -4.67162         6.47307
     2020.25188        -1.61398         6.38841
     2020.25462        -2.20535         6.41716
     2020.25735        -3.32872         6.31414
     2020.26009         2.84591         6.75419
     2020.26283         2.43054         6.43713
     2020.26557        -3.65483         6.21750
     2020.26830        -5.34120         6.27500
     2020.27104        -6.93957         6.27740
     2020.27378        -1.95393         6.20632
     2020.27739        -0.98815         7.23338
     2020.27926        -3.28167         6.27341
     2020.28199        -1.37504         6.27261
     2020.28473        -8.97441         6.71027
     2020.28747        -4.68878         6.49064
     2020.29021        -3.85415         6.29337
     2020.29295        -3.22251         6.25344
     2020.29568        -3.69688         6.66554
     2020.29842        -0.14125         6.26302
     2020.30116        -0.53662         6.43393
     2020.30390        -4.32399         6.26782
