# ================= DQRFIT RESULTS ================
# INPUT FILE: series/PARP.rad
# OUTPUT: LDETRENDED
# FILTER FUNCTION: f(t)
# f(t)=+line(t)
# line(t)=+P 1+P 2*t
# heav(t)=(t<0?0:1)
# TOTAL OBSERVATIONS MTOT=  234
# INITIAL TIME INTERVAL= 2016.6763 - 2011.4962 =  5.1800
# TOTAL OBSERVATIONS AFTER PREFILTER M=  233
# TIME-SPAN=    0.0000 -    0.0000 =  0.0000
# OBSERVATIONS: USED M=   233 REJECTED MTOT-M=     1 %USED=   99.5726
# N=  2 PARAMETERS
# MAXSIG= 175.00000
# MAXRES=  11.85158
# SCALE FACTOR FOR LENGTHS: SCL=  10.00000
# SCALE FACTOR FOR SIGMAS: SCLSIG=   1.00000
# CHI^2=    137.188 DOF=   231 CHI^2/DOF=   0.59389
# RMS=      4.311 SDEV=      4.320 MEAN=   -0.03673
#  P #       PARAMETER +-    SIGMA %error PARAMETER NAME
# P 1 =       966.26429 +-  336.092  34.78 YZERO                              
# P 2 =        -0.47839 +-    0.167  34.89 SLOPE                              
#       T            LDETRENDED       SIG_OBS
     2011.49624        -0.65634         4.29247
     2011.49896        -3.62003         4.51210
     2011.50172        -1.59172         4.35951
     2011.50445        -3.64141         4.35489
     2011.50719        -8.85110         4.53599
     2011.50993        -6.15979         4.39650
     2011.51267        -9.54748         4.47357
     2011.51541        -1.16917         4.40267
     2011.51814         2.61214         4.30942
     2011.52088        -7.39455         4.38417
     2011.52362        -0.05424         4.35258
     2011.52636        -5.92693         4.32792
     2011.52909        -4.72062         4.48359
     2011.53183        -5.21331         4.40036
     2011.53457        -0.67500         4.30788
     2011.53731        -7.95069         4.32561
     2011.54005        -2.33138         4.28861
     2011.54278        -2.96107         4.33794
     2011.54552        -2.35176         4.37955
     2011.54826        -0.67645         4.30634
     2011.55100        -3.11114         4.31250
     2011.55374       -12.86083         4.28784
     2011.55647        -6.67652         4.31482
     2011.55921        -2.93221         4.29324
     2011.56195        -2.51190         4.32175
     2011.56469         1.13041         4.43966
     2011.56742         3.95972         4.33254
     2011.57016        -0.55197         4.40190
     2011.57290        -1.81066         4.28939
     2011.57564         0.35665         4.32561
     2011.57838        -0.88804         4.38957
     2011.58111        -4.65273         4.44583
     2011.58385        -9.44842         4.35566
     2011.58659        -1.70011         4.46432
     2011.58933        -3.47180         4.35104
     2011.59206        -2.54649         4.31173
     2011.59480        -2.31218         4.27783
     2011.59754        -5.74587         4.37647
     2011.60028         0.32844         4.31944
     2011.60302        -1.03826         4.32098
     2011.60575        -0.01395         4.31482
     2011.60849        -1.07464         4.54216
     2011.61123         0.22567         4.57221
     2011.61397        -2.70402         4.44043
     2011.61671         0.68329         4.41885
     2011.61944        -1.99540         4.48359
     2011.62218        -6.18109         4.42271
     2011.62492        -1.67578         4.37801
     2011.62766        -1.56647         4.38803
     2011.63039         2.23784         4.35797
     2011.63313         4.60815         4.39265
     2011.63587         3.69046         4.33177
     2011.63861        -0.60223         4.30557
     2011.64121         1.25902         4.62076
     2012.48734         1.17880         4.22696
     2012.49008        -0.19089         4.24006
     2012.49282        -2.13458         4.21232
     2012.49556         5.46473         4.22388
     2012.49829         5.45003         4.23390
     2012.50103         7.10734         4.27628
     2012.50377         2.66765         4.37339
     2012.50651         9.18896         4.21926
     2012.50924         7.92527         4.31559
     2012.51198         4.41458         4.34102
     2012.51472         2.83689         4.30634
     2012.51746         4.45220         4.28399
     2012.52020         0.90651         4.27320
     2012.52293         0.33582         4.25162
     2012.52567         4.70513         4.31096
     2012.52841         4.23044         4.25317
     2012.53115         5.52775         4.28476
     2012.53389         5.66406         4.32175
     2012.53662         2.64337         4.24854
     2012.53936         4.99768         4.28939
     2012.54210         6.41199         4.26472
     2012.54484         8.24230         4.23852
     2012.54757         2.24261         4.26241
     2012.55031         2.93492         4.25085
     2012.55305         8.65523         4.27012
     2012.55579         3.81454         4.25471
     2012.55853        -0.90915         4.30711
     2012.56126         2.48516         4.31250
     2012.56400         1.11047         4.37107
     2012.56674         4.87078         4.22234
     2012.56948         6.95609         4.23775
     2012.57222         4.74040         4.29016
     2012.57495         3.10071         4.26395
     2012.57769         3.93302         4.22234
     2012.58043         4.20433         4.23852
     2012.58317        -0.28636         4.28553
     2012.58590         1.21095         4.27628
     2012.58864         8.66126         4.26010
     2012.59138         5.91957         4.23236
     2012.59412         2.49288         4.32329
     2012.59686         3.67119         4.25625
     2012.59959         5.85850         4.24931
     2013.31417         3.48434         4.27397
     2013.31691         2.45165         4.35027
     2013.31965         1.21596         4.29786
     2013.32239        -0.23573         4.36337
     2013.32512         5.69658         4.31944
     2013.32786        -2.59811         4.32175
     2013.33060         1.48320         4.28553
     2013.33334        -2.62649         4.29324
     2013.33608         1.43882         4.29478
     2013.33881         5.59813         4.31482
     2013.34155         3.16444         4.32021
     2013.34429         1.67075         4.25625
     2013.34703         2.23106         4.28939
     2013.34977         4.08437         4.30711
     2013.35250         2.34768         4.34025
     2013.35524         1.16599         4.40344
     2013.35798        -5.16270         4.28861
     2013.36072        -2.27939         4.26781
     2013.36345         4.15792         4.33100
     2013.36619         2.51523         4.35951
     2013.36893         2.63054         4.34256
     2013.37167        -6.27715         4.29247
     2013.37441         1.77816         4.29016
     2013.37714        -0.60853         4.34795
     2013.37988         2.62878         4.34025
     2013.38262        -2.97991         4.30249
     2013.38536        -5.49360         4.29940
     2013.38810        -2.68729         4.28168
     2013.39083         3.71602         4.28168
     2013.39357         1.06132         4.29555
     2013.39631        -2.50237         4.27474
     2013.39905       -11.33406         4.26395
     2013.40178        -3.01175         4.29555
     2013.40452         2.43456         4.28939
     2013.40726        -5.01813         4.36028
     2013.41000        -3.60382         4.32021
     2013.41274        -1.76151         4.30172
     2013.41547        -1.25120         4.34333
     2013.41821         4.91511         4.30094
     2013.42095         3.97342         4.35181
     2013.42369        -0.60927         4.29401
     2013.42643        -1.24196         4.32098
     2013.42916         3.71335         4.31713
     2013.43190         1.12866         4.30942
     2013.43464         7.61697         4.33794
     2013.43738         0.47428         4.27551
     2013.44011        -6.31341         4.46047
     2013.44285         4.21490         4.46047
     2013.44559         4.07821         4.44351
     2015.11568        -4.61584         4.34795
     2015.11842        -5.98053         4.34410
     2015.12115        -2.74922         4.36028
     2015.12389        -2.78691         4.35104
     2015.12663        -6.74760         4.36491
     2015.12937        -3.75529         4.34179
     2015.13211        -4.69798         4.30942
     2015.13484        -3.14867         4.42348
     2015.13758        -0.53836         4.45816
     2015.14032        -0.87205         4.39573
     2015.14306        -4.47274         4.36645
     2015.14580        -7.26343         4.35874
     2015.14853        -5.08312         4.34950
     2015.15127         0.42619         4.30480
     2015.15401        -4.24250         4.35027
     2015.15675         3.60181         4.38340
     2015.15948         6.64012         4.28245
     2015.16222         1.39843         4.29016
     2015.16496         1.60674         4.29247
     2015.16770         3.03905         4.35643
     2015.17044        -0.20864         4.33177
     2015.17317        -5.28833         4.43812
     2015.17591        -4.15302         4.42579
     2015.17865         0.01129         4.30480
     2015.18139         2.24960         4.31713
     2015.18413         3.79790         4.34641
     2015.18686        -0.29279         4.33562
     2015.18960        -4.57348         4.36799
     2015.19234        -5.71217         4.48898
     2015.19508        -0.57286         4.34333
     2015.19781         3.55545         4.41038
     2015.20055        -4.69724         4.41731
     2015.20329        -4.08693         4.39034
     2015.20603        -9.64562         4.41885
     2015.20877        -7.49131         4.33100
     2015.21150        -3.86100         4.33871
     2015.21424        -2.09969         4.32252
     2015.21972       -11.05507         4.31559
     2015.22246        -2.34976         4.36260
     2015.22519        -7.43345         4.34102
     2015.22793        -2.32814         4.31790
     2015.23067         0.74717         4.32252
     2015.23341         0.56948         4.38726
     2015.23614         2.31579         4.49438
     2015.23888         1.90010         4.40806
     2015.24162         5.81441         4.43195
     2015.24436         1.44772         4.47511
     2015.24710         0.62803         4.35181
     2015.24983        -4.56166         4.30480
     2015.25257         0.72365         4.29324
     2015.25531         3.06196         4.31713
     2015.25805         0.32127         4.32098
     2015.26079        11.85158         4.34102
     2015.26352         2.36689         4.30634
     2015.26626        -0.44780         4.29555
     2015.26900         0.76951         4.28939
     2015.27174         4.89282         4.39265
     2015.27447         7.84413         4.48050
     2015.27721        -4.30756         4.43427
     2015.27995         0.85475         4.36105
     2015.28269        -8.53194         4.43118
     2015.28534         4.14333         4.61845
     2016.60781         4.01798         4.23005
     2016.61055        -4.04671         4.25317
     2016.61328        -3.34240         4.24854
     2016.61602        -3.20309         4.23313
     2016.61876        -3.20278         4.24238
     2016.62150         1.23153         4.30403
     2016.62423         3.39784         4.33871
     2016.62697         2.42315         4.30017
     2016.62971        -1.51854         4.22542
     2016.63245        -4.66523         4.30557
     2016.63519        -1.63492         4.22003
     2016.63792         4.10738         4.23236
     2016.64066         9.81969         4.21772
     2016.64340        -1.98200         4.21386
     2016.64614         0.46131         4.16531
     2016.64888         1.56662         4.21540
     2016.65161         2.03293         4.31790
     2016.65435        -3.31276         4.25856
     2016.65709        -1.12845         4.25471
     2016.65983        -3.10914         4.24006
     2016.66256        -3.95883         4.21232
     2016.66530         2.91248         4.23005
     2016.66804         2.04579         4.26395
     2016.67078        -0.12990         4.42964
     2016.67352         4.31741         4.28939
     2016.67625         7.72372         4.28861
