# ================= DQRFIT RESULTS ================
# INPUT FILE: series/PILG.rad
# OUTPUT: LDETRENDED
# FILTER FUNCTION: f(t)
# f(t)=+line(t)
# line(t)=+P 1+P 2*t
# heav(t)=(t<0?0:1)
# TOTAL OBSERVATIONS MTOT=  295
# INITIAL TIME INTERVAL= 2019.4769 - 2006.4367 = 13.0402
# TOTAL OBSERVATIONS AFTER PREFILTER M=  294
# TIME-SPAN=    0.0000 -    0.0000 =  0.0000
# OBSERVATIONS: USED M=   294 REJECTED MTOT-M=     1 %USED=   99.6610
# N=  2 PARAMETERS
# MAXSIG= 175.00000
# MAXRES=  24.37801
# SCALE FACTOR FOR LENGTHS: SCL=  10.00000
# SCALE FACTOR FOR SIGMAS: SCLSIG=   1.00000
# CHI^2=    363.374 DOF=   292 CHI^2/DOF=   1.24443
# RMS=      6.343 SDEV=      6.354 MEAN=    0.02621
#  P #       PARAMETER +-    SIGMA %error PARAMETER NAME
# P 1 =      2872.33094 +-  209.568   7.30 YZERO                              
# P 2 =        -1.42486 +-    0.104   7.29 SLOPE                              
#       T            LDETRENDED       SIG_OBS
     2006.43669        -8.04652         6.56608
     2006.43943       -12.05262         6.51588
     2006.44217        -5.15372         6.52257
     2006.44491        -5.95582         6.47237
     2006.44764        -7.53592         6.57165
     2006.45038        -4.90502         6.51922
     2006.45312        -9.46312         6.45564
     2006.45586        -6.12222         6.56384
     2006.45859        -7.74732         6.48910
     2006.46133        -6.41041         6.63635
     2006.46407        -4.26551         6.62074
     2006.46681        -4.81861         6.63970
     2006.46955        -6.59171         6.65867
     2006.47228        -6.74481         6.63301
     2006.47502       -11.35091         6.66982
     2006.47776       -11.51701         6.57723
     2006.48050       -16.39811         6.72002
     2006.48324       -14.77021         6.77468
     2006.48597        -5.57531         6.80145
     2012.03560         3.69011         6.14217
     2012.03833         0.63801         6.16783
     2012.04107         8.65691         6.12878
     2012.04381         5.33681         6.16671
     2012.04655         6.42871         6.21133
     2012.04929         7.26061         6.23141
     2012.05202         5.90251         6.20129
     2012.05476         5.38341         6.16337
     2012.07119         6.57082         7.13723
     2012.07393         2.00472         6.68767
     2012.07940         8.34252         7.45851
     2012.08214         5.27642         7.02122
     2012.08762         7.98523         7.40831
     2012.09035         3.54413         6.65755
     2012.09309         5.77103         6.83492
     2012.09583         3.72093         6.72225
     2012.09857         2.31983         6.83715
     2012.10131         1.78873         7.82329
     2012.10678        -1.20547         7.45405
     2012.10952         6.40843         7.17628
     2012.11499         3.47224         7.23205
     2012.13690         4.08645         7.42950
     2012.14511         2.32515         7.13946
     2012.14785        -3.32695         6.56496
     2012.15059         0.50595         6.20464
     2012.15332        -0.28415         6.16225
     2012.15606         0.62775         7.37596
     2012.16975       -12.02174         6.39651
     2012.17249        -5.78084         6.15444
     2012.17523        -0.04994         6.16560
     2012.17797         6.18796         6.18456
     2012.18070         0.54886         6.81149
     2012.18344        -5.66724         6.12767
     2012.18618        -5.38834         6.21133
     2012.18892        -3.98344         6.23588
     2012.19165         4.18247         6.27380
     2012.19439         0.66237         6.24034
     2012.19713        11.69527         6.32847
     2012.19987       -13.36883         7.48751
     2012.21356         1.62267         7.02233
     2012.21629        -0.50942         6.17898
     2015.71527        12.29711         6.23699
     2015.71801        14.61701         6.25372
     2015.72074        10.70291         6.29835
     2015.72348        10.97081         6.29165
     2015.72622         6.87271         6.26600
     2015.72896         4.01661         6.22584
     2015.73170         2.39951         6.28384
     2015.73443         5.18341         6.31843
     2015.73717        14.10732         6.23922
     2015.73991        13.81022         6.42329
     2015.74265         8.75912         6.41994
     2015.74538         7.80102         6.61851
     2015.74812         6.27292         6.60066
     2015.75086        -1.58318         6.33293
     2015.75360         8.06972         6.27380
     2015.75634         8.33662         6.31508
     2015.75907        12.79452         6.23253
     2015.76181         1.72742         6.21580
     2015.76455         7.80433         6.22807
     2015.76729         5.91523         6.27827
     2015.77003         5.36513         6.26042
     2015.77276         7.87303         6.25707
     2015.77550         9.37893         6.24257
     2015.77824        11.22683         6.21803
     2015.78098         8.21173         6.24257
     2015.78371         9.51363         6.27157
     2015.78645        10.45453         6.26934
     2015.78919         5.43943         6.23922
     2015.79193         6.73434         6.28831
     2015.79467         1.32524         6.37420
     2015.79740         5.20914         6.28942
     2015.80014        16.62304         6.44002
     2015.80288         5.38194         6.23030
     2015.80562         7.71484         6.26376
     2015.80836         4.29474         6.27715
     2015.81109         3.83164         6.32289
     2015.81383         4.01654         6.25596
     2015.81657         5.60345         6.26823
     2015.81931         7.73235         6.32512
     2015.82204         6.52225         6.24145
     2015.82478         9.42215         6.26823
     2015.82752        10.02505         6.36528
     2015.83026         3.21595         6.28384
     2015.83300         7.74585         6.30950
     2015.83573         9.01975         6.30727
     2015.83847       -14.50935         6.40209
     2015.84121         6.08355         6.42886
     2015.84395        12.65746         6.40321
     2015.85216        12.01916         6.40098
     2015.86311         8.33276         7.14393
     2018.62560         2.28591         6.22807
     2018.62834        -7.50318         6.09755
     2018.63108        -0.75328         6.14663
     2018.63382         1.43462         6.25819
     2018.63656         2.30452         6.12097
     2018.63929        -0.32958         6.38313
     2018.64203        -1.72768         6.36528
     2018.64477         0.90122         6.14775
     2018.64751        -2.49388         6.11763
     2018.65024         6.88202         6.08082
     2018.65298         0.76392         6.15890
     2018.65572         0.56183         6.07635
     2018.65846        -1.42027         6.06520
     2018.66120         1.77763         6.36305
     2018.66393         5.08853         6.14775
     2018.66667         1.18243         6.13882
     2018.66941         0.19333         6.09643
     2018.67215        -5.49877         6.07524
     2018.67488         2.40513         6.10759
     2018.67762         1.26403         6.11651
     2018.68036        -2.39006         6.28273
     2018.68310        -7.33916         6.20576
     2018.68584         4.47374         6.20241
     2018.68857         2.53564         6.11093
     2018.69131         3.14454         6.16560
     2018.69405         5.12244         6.32847
     2018.69679         4.78634         6.16783
     2018.69953         1.59524         6.14775
     2018.70226         0.46314         6.26265
     2018.70500         1.12304         6.31731
     2018.70774        -2.47305         6.11986
     2018.71048        -3.73315         6.07747
     2018.71321        -4.03525         6.09866
     2018.71595         1.55265         6.14329
     2018.71869        -5.54445         6.15109
     2018.72143        -6.15155         6.20799
     2018.72417        -2.25965         6.15556
     2018.72690         1.08225         6.08751
     2018.72964         1.97715         6.13659
     2018.73238        -4.38495         6.13101
     2018.73512        -2.87104         6.20576
     2018.73786        -1.98614         6.17564
     2018.74059        -5.52524         6.06743
     2018.74333         8.09166         6.21468
     2018.74607        -1.61244         6.09197
     2018.74881        -4.59554         6.24145
     2018.75154        -2.61664         6.21580
     2018.75428        -0.13974         6.18568
     2018.75702        -2.45984         6.17564
     2018.75976        -0.84593         6.12544
     2018.76250         4.05897         6.10982
     2018.76523         0.75187         6.33516
     2018.76797         0.61777         6.17452
     2018.77071        -0.94833         6.16783
     2018.77345         1.57957         6.10647
     2018.77619         2.14647         6.10090
     2018.77892         1.68437         6.12767
     2018.78166         2.29927         6.30169
     2018.78440         2.33317         6.12209
     2018.78714        -1.72792         6.14775
     2018.78987        -4.54402         6.22472
     2018.79261        -1.83312         6.06854
     2018.79535         1.02678         6.12655
     2018.79809        -4.03432         6.09978
     2018.80083        -0.21142         6.14886
     2018.80356         0.63448         6.13771
     2018.80630         1.84538         6.24368
     2018.80904        -1.78472         6.13213
     2018.81178        -4.30181         6.44671
     2018.81452        -2.74791         6.22695
     2018.81725        -5.11401         6.32289
     2018.81999         1.00489         6.17787
     2018.82273         0.18679         6.22360
     2018.82547         5.68569         6.20018
     2018.82820        -0.73641         6.11763
     2018.83094        -3.37151         6.14329
     2018.83368        -6.78261         6.16225
     2018.83642         0.81929         6.16560
     2018.83916         2.83820         6.17675
     2018.84189         2.05210         6.18791
     2018.84463         1.49000         6.19572
     2018.84737        -2.56610         6.13436
     2018.85011         1.85180         6.11986
     2018.85285        -1.21530         6.13882
     2018.85558        -4.25440         6.16113
     2018.85832         1.95550         6.17787
     2018.86106         0.41740         6.13101
     2018.86380        -0.86170         6.17675
     2018.86653         3.03321         6.13771
     2018.86927        -4.51889         6.17006
     2018.87201        -0.66199         6.17229
     2018.87475         1.06591         6.14998
     2018.87749         3.39981         6.21914
     2018.88022        -1.34629         6.18791
     2018.88296         1.94561         6.19237
     2018.88570         1.57451         6.22026
     2018.88844         7.80941         6.31954
     2018.89118        -6.78768         6.29277
     2018.89391        -3.46578         6.30058
     2018.89665         0.19112         6.36639
     2018.89939         3.80702         6.21133
     2018.90213         1.06492         6.14998
     2018.90486         3.06682         6.23030
     2018.90760         3.17872         6.27604
     2019.25805       -22.62894         6.12321
     2019.26352       -18.15414         6.58504
     2019.26626        -2.96124         6.40544
     2019.26900         1.85366         6.39986
     2019.27174        -7.41544         6.54823
     2019.27447        -7.65654         6.14663
     2019.27721        -3.61864         6.27492
     2019.27995        -3.28474         6.17787
     2019.28269        -9.20784         6.19906
     2019.28543         1.28707         6.20687
     2019.28816        -3.63903         6.15779
     2019.29090        -7.55013         6.12655
     2019.29364        -6.93223         6.12432
     2019.29638        -9.20433         6.30839
     2019.29911        -1.78343         6.24480
     2019.30185        -3.99553         6.20576
     2019.30459       -11.72463         6.07412
     2019.30733        -8.24373         6.13994
     2019.31007        -3.26583         6.36862
     2019.31280       -12.89892         6.33293
     2019.31554         7.43598         6.26600
     2019.31828        -5.41712         6.08193
     2019.32102        -0.44822         6.13882
     2019.32376       -12.82132         6.19348
     2019.32649        -8.23442         6.28496
     2019.32923        -9.03352         6.15444
     2019.33197        -6.11162         6.24368
     2019.33471        -8.63072         6.21468
     2019.33744        -5.81781         6.17898
     2019.34018        -6.98891         6.17787
     2019.34292         2.64999         6.24257
     2019.34566        -4.68411         6.25261
     2019.34840        -9.69521         6.25149
     2019.35113        -7.53031         6.16671
     2019.35387       -14.25941         6.19460
     2019.35661        -3.62351         6.16448
     2019.35935        -1.12361         6.18791
     2019.36209        -2.59471         6.11763
     2019.36482         2.88820         6.13101
     2019.36756        -1.43090         6.16894
     2019.37030        -1.24400         6.26488
     2019.37304         0.66490         6.13659
     2019.37577         1.16580         6.24257
     2019.37851         2.00470         6.18345
     2019.38125         1.75660         6.10647
     2019.38399         0.21250         6.22807
     2019.38673         6.63440         6.27827
     2019.38946        -9.17969         6.11317
     2019.39220        -2.32679         6.14440
     2019.39494        -3.67989         6.16448
     2019.39768        24.37801         6.49803
     2019.40042         3.12991         6.29946
     2019.40315        -1.56819         6.15444
     2019.40589         0.16971         6.22249
     2019.40863        -4.08839         6.15667
     2019.41137         2.17851         6.23141
     2019.41410         1.21541         6.19460
     2019.41684        -2.68268         6.25819
     2019.41958        -4.55778         6.25596
     2019.42232        -6.24688         6.18679
     2019.42506         0.17402         6.26823
     2019.42779         5.38992         6.48576
     2019.43053        -3.13018         6.21691
     2019.43327        -4.29228         6.22249
     2019.43601        -8.48938         6.19125
     2019.43875       -10.49148         6.27492
     2019.44148        -9.75458         6.25930
     2019.44422        -5.40567         6.23141
     2019.44696        -4.67777         6.45452
     2019.44970         3.17313         6.39428
     2019.45243        -1.62597         6.26042
     2019.45517        -3.41207         6.26042
     2019.45791        -0.84717         6.32066
     2019.46065        -5.73127         6.25038
     2019.46339        -5.28637         6.55269
     2019.46612         8.66153         6.55269
     2019.46886         1.84644         6.43110
     2019.47160        -1.63866         6.27046
     2019.47434         1.05624         6.28496
     2019.47686         1.56683         6.83827
