# ================= DQRFIT RESULTS ================
# INPUT FILE: series/QURY.rad
# OUTPUT: LDETRENDED
# FILTER FUNCTION: f(t)
# f(t)=+line(t)
# line(t)=+P 1+P 2*t
# heav(t)=(t<0?0:1)
# TOTAL OBSERVATIONS MTOT=   66
# INITIAL TIME INTERVAL= 2022.4367 - 1999.4223 = 23.0144
# TOTAL OBSERVATIONS AFTER PREFILTER M=   65
# TIME-SPAN=    0.0000 -    0.0000 =  0.0000
# OBSERVATIONS: USED M=    65 REJECTED MTOT-M=     1 %USED=   98.4848
# N=  2 PARAMETERS
# MAXSIG= 175.00000
# MAXRES= 170.29010
# SCALE FACTOR FOR LENGTHS: SCL=  10.00000
# SCALE FACTOR FOR SIGMAS: SCLSIG=   1.00000
# CHI^2=    115.552 DOF=    63 CHI^2/DOF=   1.83416
# RMS=     27.661 SDEV=     27.700 MEAN=    3.10498
#  P #       PARAMETER +-    SIGMA %error PARAMETER NAME
# P 1 =      7984.76570 +-  448.134   5.61 YZERO                              
# P 2 =        -3.94198 +-    0.222   5.64 SLOPE                              
#       T            LDETRENDED       SIG_OBS
     1999.42231       -13.51273        12.78200
     1999.42505         3.31206        13.69887
     1999.42779        -0.79814        12.29852
     1999.43053         1.08665        12.59917
     1999.43326         5.43844        12.75492
     1999.43600        -3.88077        12.36894
     1999.43874        -5.28097        12.58834
     1999.44148        -9.31318        12.72377
     1999.44422         1.42561        12.56938
     1999.44695        -3.77560        12.86868
     1999.44936         3.44490        14.51959
     2013.72877       170.29010       559.45697
     2013.73032         6.48319        11.04442
     2013.73269        25.25656        12.31341
     2015.29089         3.97495        10.48644
     2015.29363         8.80174        10.19933
     2015.29637        -4.75447        10.64896
     2015.29911         8.55533        10.00973
     2015.30184         9.46312        10.20204
     2015.30458        22.14791        10.21423
     2015.30732        15.82470        10.03681
     2015.31006        10.54050         9.92440
     2015.31279        13.52529         9.82825
     2015.31553         8.81708         9.86888
     2015.31827         4.74187         9.79574
     2015.32101         7.29667        10.07338
     2015.32375        18.63546        11.88545
     2015.32648         3.48425        10.44717
     2016.47091        -0.95646        11.04307
     2016.47091        -0.95646        11.04307
     2016.47289         0.47437        17.16321
     2016.47289         0.47437        17.16321
     2017.46598        74.23211        47.35897
     2017.46598        74.23211        47.35897
     2017.46748       -12.98696        11.04848
     2017.46748       -12.98696        11.04848
     2017.47022        -6.46617        11.04984
     2017.47022        -6.46617        11.04984
     2017.47296       -17.15738        10.68417
     2017.47296       -17.15738        10.68417
     2017.47534       -14.08401        12.62897
     2017.47534       -14.08401        12.62897
     2018.43222       -27.74599        23.77632
     2018.43222       -27.74599        23.77632
     2018.43394       -13.76819         9.92440
     2018.43394       -13.76819         9.92440
     2018.43668       -15.49540        10.48915
     2018.43668       -15.49540        10.48915
     2018.43942       -15.02360        10.25757
     2018.43942       -15.02360        10.25757
     2018.44157        -1.59012        12.83618
     2018.44157        -1.59012        12.83618
     2020.29951       -33.95716        44.53929
     2020.30116         5.77934        15.98766
     2020.30390       -14.35387        16.77181
     2020.30663       -12.56908        16.07299
     2020.30883        -6.88244        23.26980
     2021.40561       -14.33593        52.39159
     2021.40725         6.43453        11.20288
     2021.40999        12.20633        12.03307
     2021.41273         9.85512        11.32070
     2021.41539         9.26463        11.75950
     2022.43121        16.82595        11.68230
     2022.43394         8.91974        11.90441
     2022.43668         4.54154        12.49354
