# ================= DQRFIT RESULTS ================
# INPUT FILE: series/RATC.rad
# OUTPUT: LDETRENDED
# FILTER FUNCTION: f(t)
# f(t)=+line(t)
# line(t)=+P 1+P 2*t
# heav(t)=(t<0?0:1)
# TOTAL OBSERVATIONS MTOT=  349
# INITIAL TIME INTERVAL= 2017.2129 - 2006.3628 = 10.8501
# TOTAL OBSERVATIONS AFTER PREFILTER M=  349
# TIME-SPAN=    0.0000 -    0.0000 =  0.0000
# OBSERVATIONS: USED M=   349 REJECTED MTOT-M=     0 %USED=  100.0000
# N=  2 PARAMETERS
# MAXSIG= 175.00000
# MAXRES=  15.30316
# SCALE FACTOR FOR LENGTHS: SCL=  10.00000
# SCALE FACTOR FOR SIGMAS: SCLSIG=   1.00000
# CHI^2=    397.471 DOF=   347 CHI^2/DOF=   1.14545
# RMS=      6.221 SDEV=      6.230 MEAN=   -0.02476
#  P #       PARAMETER +-    SIGMA %error PARAMETER NAME
# P 1 =      1336.29832 +-  174.649  13.07 YZERO                              
# P 2 =        -0.66314 +-    0.087  13.10 SLOPE                              
#       T            LDETRENDED       SIG_OBS
     2006.36277        -5.71104         6.28883
     2006.36551        -7.18622         6.27705
     2006.36825        -2.46641         6.22140
     2006.37098         4.06441         6.38408
     2006.37372         7.66522         6.59813
     2006.37646         3.17804         6.34234
     2006.37920        -5.26315         6.39050
     2006.38193        -2.09933         6.34341
     2006.38467         4.52249         6.34662
     2006.38741         1.34430         6.39264
     2006.39015       -10.25388         6.41833
     2006.39289         0.19493         6.36802
     2006.39562         1.05675         6.51893
     2006.39836        -4.07844         6.56174
     2006.40110        -4.05462         6.45364
     2006.40384        -4.21481         6.41833
     2006.40658         2.74301         6.39371
     2006.40931         0.81183         6.35518
     2006.41205         1.72164         6.34769
     2006.41479         1.96146         6.42903
     2006.41727        -3.63690         7.22958
     2006.91582       -12.74329         6.43438
     2006.91855        -7.81348         6.41726
     2006.95141       -14.94269         6.58850
     2007.60575        -3.87776         6.28990
     2007.60849        -2.24595         6.32307
     2007.61123         1.84887         6.24173
     2007.61397        -8.45632         6.25030
     2007.61671        -1.34350         6.75653
     2007.61944        -0.51168         6.62917
     2007.62218         7.38113         6.59385
     2007.62492        -1.62105         6.55425
     2007.62766        -7.17724         6.67733
     2007.63039        -2.02542         6.82502
     2007.63313         2.53339         6.66234
     2007.63587        -9.77979         6.49860
     2007.63861        -0.48498         6.72014
     2007.64135        -1.23816         6.26528
     2007.64408         2.42366         6.54783
     2007.64682        -8.07653         6.61632
     2007.64956        -9.04071         6.84108
     2007.65230        -1.97390         6.79827
     2007.65504        -2.97808         6.61311
     2007.65777        -6.01327         6.63880
     2007.66051       -10.98045         6.54248
     2007.66325        -4.50064         6.83894
     2007.66599         3.25618         6.73619
     2007.66872        -9.62800         6.68482
     2007.67146        -4.78919         6.56709
     2007.67420        -8.84537         6.66127
     2007.67694         6.05744         6.61525
     2007.67968         0.74926         6.57779
     2007.68241         5.65607         6.62060
     2007.68515        -0.25811         6.77151
     2007.68789        -2.30330         6.70837
     2007.69063         1.16052         6.49324
     2007.69337         4.46634         6.52214
     2007.69610        -2.59685         6.58208
     2007.69884         3.10597         6.60669
     2007.70158         4.06078         6.67091
     2007.70432         6.94660         6.84001
     2007.70705         2.28341         6.56816
     2007.70979        -2.22977         6.60883
     2007.71253        -1.85695         6.58315
     2007.71527        11.97586         6.33699
     2007.71801         2.84868         6.33057
     2007.72074         8.37349         6.32735
     2007.72348         6.38631         6.47933
     2007.72622       -10.59788         6.23210
     2007.72896         8.29794         6.33378
     2007.73170         4.92075         6.45472
     2008.17523        -2.35612         6.52642
     2008.17797        -0.48030         6.28347
     2008.18070        -0.41349         6.27277
     2008.18344         3.99933         6.37659
     2008.18618         3.54714         6.28776
     2008.18892        -4.82704         6.26314
     2008.19165        -6.76423         6.26207
     2008.19439        -3.22741         6.29418
     2008.19713         4.27740         6.41726
     2008.19987        -4.76478         6.26956
     2008.20261        -0.22596         6.36267
     2008.20534         8.66385         6.29311
     2008.20808         4.47367         6.52321
     2008.21082        -2.86952         6.51679
     2008.21356        -1.25470         6.49324
     2008.21629       -13.20989         6.43545
     2008.21903        -7.51407         6.50288
     2008.22177         0.65674         6.35197
     2008.22451        -0.39644         6.41619
     2008.22725        -3.84862         6.44615
     2008.22998        -9.87081         6.58208
     2008.23272        -4.37299         6.53605
     2008.23546        -1.27218         6.51358
     2008.23820         2.30264         6.43117
     2008.24094        -5.26455         6.44508
     2008.24367         6.64427         6.30274
     2008.24641         4.50508         6.25244
     2008.24915         5.08490         6.23959
     2008.25189         5.74172         6.37338
     2008.25462         5.03253         6.31344
     2008.25736         1.18635         6.28668
     2008.26010         5.57616         6.23745
     2008.26284       -10.66602         6.23638
     2008.26558        -1.64521         6.20642
     2008.26831        -0.72539         6.25458
     2008.27105        -2.10957         6.22996
     2008.27379         4.56824         6.29525
     2008.27653         2.94606         6.25565
     2008.27927        -2.02913         6.46435
     2008.28200         2.64669         6.20320
     2008.28474         1.37850         6.37338
     2008.28748        10.69332         6.38515
     2008.29022         2.65913         6.32842
     2008.29295         4.01595         6.26635
     2008.29569        -1.30723         6.30060
     2008.29843        -6.41742         6.24280
     2008.30117         0.06240         6.28668
     2008.30391         2.11221         6.27919
     2008.30664         3.07803         6.28454
     2008.30938        -8.37316         6.35946
     2008.31212         4.66866         6.45686
     2008.31486         9.32247         6.18822
     2008.31760        -0.58871         6.40120
     2008.32033         5.17111         6.37766
     2008.32307         0.59592         6.39478
     2008.32581         7.19474         6.75439
     2008.32855         4.29155         6.24709
     2008.33128        -2.43063         6.22889
     2008.33402         6.85118         6.14862
     2008.33676         6.24100         6.23103
     2008.33950         5.56481         6.24387
     2008.34224         7.43363         6.21926
     2008.34497         1.51345         6.19571
     2008.34771        10.23026         6.27277
     2008.35045         2.84008         6.21926
     2008.35319         6.64289         6.20535
     2008.35593         3.67671         6.14434
     2008.35866         2.79752         6.23210
     2008.36140        -0.78066         6.14541
     2008.36414         4.63516         6.12615
     2008.36688         1.08597         6.11009
     2008.36961        -3.19021         6.12829
     2008.37235        -1.06940         6.08227
     2008.37509         0.35342         6.07584
     2008.37783         0.47123         6.25779
     2008.38057         1.20105         6.23959
     2008.38330         2.40886         6.35625
     2008.38604         9.49068         6.23959
     2008.38878         4.34450         6.32200
     2008.39152         4.09131         6.26207
     2008.39426         2.95813         6.15183
     2008.39699        -0.04406         6.14434
     2008.39973        11.33576         6.15290
     2008.40247         1.28857         6.17966
     2008.40521         1.33939         6.15183
     2008.40794         2.94720         6.16789
     2008.41068         4.31602         6.20963
     2008.41342         5.88184         6.15825
     2008.41616         2.10965         6.20749
     2008.41890         8.61947         6.25244
     2008.42163        -3.97072         6.27705
     2008.42437         3.04510         6.31665
     2008.42711         9.90791         6.16789
     2008.42985        -6.22427         6.39050
     2008.43259         6.56554         6.36053
     2008.43532         5.44136         6.27705
     2008.43778        -1.07401         7.08081
     2009.51677         6.50352         6.27384
     2009.51951        -2.32767         6.19999
     2009.52225        -3.72185         6.23210
     2009.52499        -6.82004         6.25137
     2009.52773       -11.59322         6.48468
     2009.53046        -5.35940         6.44401
     2009.53320        -4.18559         6.16789
     2009.53594        -5.15977         6.31344
     2009.53868        -5.46996         6.39799
     2009.54141        -4.17214         6.19357
     2009.54415        -7.04433         6.32628
     2009.54689        -3.53651         6.41512
     2009.54963        -5.91970         6.37016
     2009.55237        -4.61488         6.28668
     2009.55510         0.88394         6.39157
     2010.27242         4.75262         6.51251
     2010.27516         0.10844         6.33485
     2010.27790        -2.92575         6.41298
     2010.28063         3.84907         6.28776
     2010.28337        -2.94812         6.45793
     2010.28611        -4.36530         6.43652
     2010.28885        -1.85849         6.32521
     2010.29159         3.00133         6.28133
     2010.29432        -2.82686         6.65913
     2010.29706         1.95796         6.25993
     2010.29980        -3.50822         6.61097
     2010.30254        10.25559         6.28133
     2010.30528         8.29841         6.30702
     2010.30801         4.78622         6.25458
     2010.31075         7.75604         6.37659
     2010.31349         1.78985         6.26849
     2010.31623         2.33467         6.29953
     2010.31896         6.15748         6.58743
     2010.32170         0.76030         6.41726
     2010.32444         1.05012         6.33485
     2010.32718         6.89493         6.52107
     2010.32992         2.13775         6.20320
     2010.33265         2.37656         6.43010
     2010.33539         2.93838         6.50181
     2010.33813         1.70919         6.76081
     2010.34087        -1.98299         6.19999
     2010.34361         1.88383         6.34876
     2010.34634        -0.53136         6.17752
     2010.34908         6.50046         6.42689
     2010.35182         2.43327         6.24602
     2010.35456        -8.46991         6.29525
     2010.35729         3.47990         6.15504
     2010.36003         2.70972         6.44401
     2011.15127        14.48742         5.94099
     2011.15401        10.72824         5.86821
     2011.15675         6.96905         5.98594
     2011.15948        -2.16813         5.96989
     2011.16222         3.92769         5.97845
     2011.16496         3.64250         6.05658
     2011.16770       -17.13368         6.02768
     2011.17044        -4.90287         5.99343
     2011.17317        -9.74705         6.01484
     2011.17591       -15.53324         5.98915
     2011.17865        -7.83842         5.98594
     2011.18139         0.95239         6.00307
     2011.18413        -6.08479         6.00414
     2011.18686        -2.17797         6.02447
     2011.18960        -3.13616         6.08869
     2011.19234        -2.38934         6.00628
     2011.19508        -5.43053         6.19571
     2011.19781        -8.05071         6.16146
     2011.20055       -10.46390         6.14648
     2011.20329         1.62692         6.09618
     2011.20603        -2.50226         6.12080
     2011.20877       -11.11745         6.15397
     2011.21150         0.17837         6.04374
     2011.21424        -7.25582         5.95919
     2011.21698        -5.09700         6.04374
     2011.21972         0.28681         6.07049
     2011.22246       -10.54537         6.05444
     2011.22519         0.62444         6.04374
     2011.22793        -7.75474         6.05765
     2011.23067        -6.87592         6.05979
     2011.23341        -3.36111         6.09832
     2011.23614        -2.50629         6.13471
     2011.23888        -6.68248         6.04481
     2011.24162        -1.47666         6.05551
     2011.24436        -4.14685         6.08869
     2011.24673        -4.16227         6.99305
     2013.62355        13.75190         6.13364
     2013.62629         2.45971         6.30916
     2013.62903        10.67553         6.10153
     2013.63176         9.13435         6.10046
     2013.63450        15.30316         6.30274
     2013.63724        12.59598         6.28454
     2013.64819         8.79724         6.20642
     2016.92266        10.98968         6.08655
     2016.92540         8.12350         6.05551
     2016.92814        -1.91069         6.25351
     2016.93087        -0.76087         6.13471
     2016.93361         8.50494         6.15825
     2016.93635         5.50676         5.92280
     2016.93909       -11.34642         6.32950
     2016.94183        -5.09661         6.09832
     2016.94456        -0.07579         6.19785
     2016.94730         5.03302         6.17645
     2016.95004         8.76684         6.26100
     2016.95278         2.70365         6.15825
     2016.95551        -5.47953         6.18929
     2016.96099         9.98210         6.19892
     2016.96373         9.77092         6.16896
     2016.96647         7.92473         6.13471
     2016.96920         6.65655         6.12615
     2016.97194         5.39636         6.08869
     2016.97468        10.96318         6.11330
     2016.97742        14.56099         6.10367
     2016.98016         8.32781         6.08762
     2016.98289         6.22163         6.12829
     2016.98563         6.83044         6.06407
     2016.98837         7.39226         6.10153
     2016.99111        10.87307         6.09404
     2016.99384        11.00489         6.14862
     2016.99658        10.51770         6.10367
     2016.99932        10.53852         6.07584
     2017.00206         4.22333         6.07691
     2017.00480        12.20615         6.02019
     2017.00753         7.76497         5.94206
     2017.01027        -2.38922         6.05765
     2017.01285        13.72049         6.28668
     2017.05408         8.58783         6.42368
     2017.05955         5.21746         5.99772
     2017.06503         1.27009         6.04588
     2017.06777        -0.48609         6.14862
     2017.07050         4.52672         6.04588
     2017.07324        -1.08846         6.06621
     2017.07598        -3.67664         6.07049
     2017.07872         0.46317         6.03089
     2017.08146        -0.01701         6.07477
     2017.08419        -4.74820         6.05658
     2017.08693        -2.72138         6.16468
     2017.08967         0.80043         6.07370
     2017.09241        -8.29975         6.12401
     2017.09515        -7.67194         6.12508
     2017.09788        -3.35612         6.16039
     2017.10062         3.27570         6.13792
     2017.10336        -6.60049         6.27384
     2017.10610       -11.21667         6.17217
     2017.10883       -12.10886         6.27812
     2017.11157       -15.91604         6.09725
     2017.11431        -1.54323         6.11116
     2017.11705        -9.33041         6.26100
     2017.11979        -1.93560         6.21819
     2017.12252        -0.94978         6.10795
     2017.12526        -0.05896         6.16682
     2017.12800        -2.18115         6.34448
     2017.13074        -5.23433         6.18822
     2017.13347         2.01148         6.06835
     2017.13621         2.10730         6.14969
     2017.13895        -5.71589         6.05872
     2017.14169        -4.44607         6.15611
     2017.14443        -9.34425         6.03410
     2017.14716        -7.01144         6.15397
     2017.14990        -1.58062         6.17110
     2017.15264        -0.47081         6.06942
     2017.15538        -3.25599         6.12615
     2017.15812        -2.69218         6.05765
     2017.16085        -1.83636         6.13578
     2017.16359        -6.88055         6.11116
     2017.16633        -3.45473         6.11758
     2017.16907        -2.83091         6.11223
     2017.17180         1.84990         6.17859
     2017.17454         6.98072         6.08120
     2017.17728        -7.02447         6.12508
     2017.18002        -1.05065         6.16039
     2017.18276        -7.31684         6.13043
     2017.18549        -7.42402         6.02875
     2017.18823        -9.32621         6.08976
     2017.19097        -6.33039         6.12401
     2017.19371        -6.98357         6.08013
     2017.19645        -3.22576         6.08548
     2017.19918        -4.51294         6.10902
     2017.20192       -11.63913         6.12401
     2017.20466       -19.61731         6.29097
     2017.20740        -7.75050         6.08120
     2017.21013        -7.92768         6.17859
     2017.21287        -3.20487         6.18715
