# ================= DQRFIT RESULTS ================
# INPUT FILE: series/SAID.rad
# OUTPUT: LDETRENDED
# FILTER FUNCTION: f(t)
# f(t)=+line(t)
# line(t)=+P 1+P 2*t
# heav(t)=(t<0?0:1)
# TOTAL OBSERVATIONS MTOT=  115
# INITIAL TIME INTERVAL= 2012.1533 - 2006.3409 =  5.8125
# TOTAL OBSERVATIONS AFTER PREFILTER M=  114
# TIME-SPAN=    0.0000 -    0.0000 =  0.0000
# OBSERVATIONS: USED M=   114 REJECTED MTOT-M=     1 %USED=   99.1304
# N=  2 PARAMETERS
# MAXSIG= 175.00000
# MAXRES=   9.78009
# SCALE FACTOR FOR LENGTHS: SCL=  10.00000
# SCALE FACTOR FOR SIGMAS: SCLSIG=   1.00000
# CHI^2=     37.109 DOF=   112 CHI^2/DOF=   0.33133
# RMS=      3.263 SDEV=      3.277 MEAN=   -0.01271
#  P #       PARAMETER +-    SIGMA %error PARAMETER NAME
# P 1 =       922.21034 +-  271.976  29.49 YZERO                              
# P 2 =        -0.46052 +-    0.135  29.39 SLOPE                              
#       T            LDETRENDED       SIG_OBS
     2006.34087         0.01827         3.28216
     2006.34361         2.69853         3.29195
     2006.34634         1.15379         3.28965
     2006.34908        -0.60595         3.31670
     2006.35182        -0.80669         3.34491
     2006.35456         0.87657         3.30634
     2006.35729        -2.75216         3.30346
     2006.36003        -1.03590         3.28562
     2006.36277         1.05636         3.33512
     2006.36551        -3.84838         3.30289
     2006.36825        -0.84312         3.31843
     2006.37098        -1.70986         3.39326
     2006.37372        -8.78760         3.42607
     2006.37646        -3.35634         3.41398
     2006.37920         1.97792         3.40189
     2006.38193         4.25818         3.38117
     2006.38467         3.30044         3.43988
     2006.38741         4.77570         3.37944
     2006.39015         3.51797         3.34721
     2006.39289         4.40923         3.35642
     2006.39562        -1.89551         3.43010
     2006.39836         7.31475         3.44909
     2006.40110         4.92301         3.41686
     2006.40384         0.11427         3.35699
     2006.40658         2.94753         3.34778
     2006.40931         1.00279         3.36793
     2006.41205         3.11605         3.36793
     2006.41463        -1.05376         3.55558
     2008.77755        -3.35960         3.25050
     2008.78029        -1.75533         3.21424
     2008.78303        -1.07207         3.24302
     2008.78577        -0.92981         3.22806
     2008.78851        -0.20055         3.29598
     2008.79124         3.66571         3.31958
     2008.79398        -4.57103         3.22000
     2008.79672        -0.25677         3.20503
     2008.79946        -1.07951         3.23439
     2008.80220        -0.28525         3.24129
     2008.80493         1.83301         3.25511
     2008.80767         0.02327         3.26202
     2008.81041         0.77953         3.22575
     2008.81315         3.27980         3.23842
     2008.81588         4.01906         3.23611
     2008.81862         0.20332         3.23899
     2008.82136        -4.20842         3.22230
     2008.82410        -1.69016         3.28965
     2008.82684        -1.52190         3.32015
     2008.82957         2.59336         3.26317
     2008.83231         1.18562         3.36102
     2008.83505         4.69688         3.32476
     2008.83779         2.39114         3.28044
     2008.84052        -0.26760         3.27526
     2008.84326        -2.65634         3.26835
     2008.84600         1.16493         3.26547
     2008.85148        -6.83055         3.29022
     2008.85421        -6.41129         3.29252
     2008.85695         2.23097         3.27180
     2008.85969         0.83623         3.26202
     2008.86243         1.03649         3.26892
     2008.86517        -5.39625         3.29137
     2008.86790        -1.44199         3.30461
     2008.87064        -3.65573         3.30404
     2008.87338        -4.95147         3.28101
     2008.87612         0.83779         3.25338
     2008.87885        -1.56195         3.30519
     2008.88159        -4.34468         3.28101
     2008.88433        -2.96242         3.30979
     2008.88707        -4.28016         3.38232
     2008.88951        -0.12904         3.81979
     2012.03286        -0.17147         3.16589
     2012.03560         2.72279         3.17683
     2012.03833         2.40405         3.20848
     2012.04107         5.76031         3.18028
     2012.04381         2.31557         3.21424
     2012.04655         3.69083         3.18316
     2012.04929         9.78009         3.17855
     2012.05202         6.07335         3.18431
     2012.05476         1.70761         3.27410
     2012.05750        -1.95913         3.19006
     2012.06024         4.06313         3.33167
     2012.06298        -4.00361         3.17683
     2012.06571        -5.66634         3.44909
     2012.06845        -4.70908         3.59703
     2012.07119         0.96218         3.59127
     2012.07393        -3.52556         3.17395
     2012.07666        -1.65830         3.20215
     2012.07940         3.88596         3.17395
     2012.08214         3.01922         3.22921
     2012.08488         3.25748         3.21079
     2012.08762         0.47974         3.22345
     2012.09035         0.03300         3.18891
     2012.09309         0.75926         3.23093
     2012.09583         1.08752         3.19812
     2012.09857         2.95778         3.20906
     2012.10131        -3.14395         3.27698
     2012.10404         0.46631         3.21079
     2012.10678        -4.10243         3.28907
     2012.10952         1.25383         3.24820
     2012.11226        -0.87891         3.21597
     2012.11499         1.56535         3.23439
     2012.11773        -5.11039         3.24705
     2012.12047        -6.05813         3.25281
     2012.12321        -2.32987         3.20503
     2012.12595        -2.90861         3.20618
     2012.12868        -5.25435         3.23899
     2012.13142        -1.02909         3.25281
     2012.13416         1.77618         3.24417
     2012.13690         3.58044         3.24763
     2012.13964         1.45370         3.30346
     2012.14237        -0.77704         3.31497
     2012.14511         3.47522         3.26374
     2012.14785        -3.49052         3.20561
     2012.15059         1.05674         3.19870
     2012.15332         0.01700         3.18661
