# ================= DQRFIT RESULTS ================
# INPUT FILE: series/SONC.rad
# OUTPUT: LDETRENDED
# FILTER FUNCTION: f(t)
# f(t)=+line(t)
# line(t)=+P 1+P 2*t
# heav(t)=(t<0?0:1)
# TOTAL OBSERVATIONS MTOT=  236
# INITIAL TIME INTERVAL= 2016.8898 - 2011.4908 =  5.3990
# TOTAL OBSERVATIONS AFTER PREFILTER M=  236
# TIME-SPAN=    0.0000 -    0.0000 =  0.0000
# OBSERVATIONS: USED M=   236 REJECTED MTOT-M=     0 %USED=  100.0000
# N=  2 PARAMETERS
# MAXSIG= 175.00000
# MAXRES=  17.54210
# SCALE FACTOR FOR LENGTHS: SCL=  10.00000
# SCALE FACTOR FOR SIGMAS: SCLSIG=   1.00000
# CHI^2=    148.920 DOF=   234 CHI^2/DOF=   0.63641
# RMS=      5.205 SDEV=      5.216 MEAN=   -0.03536
#  P #       PARAMETER +-    SIGMA %error PARAMETER NAME
# P 1 =     -1254.12202 +-  308.656  24.61 YZERO                              
# P 2 =         0.62398 +-    0.153  24.56 SLOPE                              
#       T            LDETRENDED       SIG_OBS
     2011.49076         8.95820         5.26119
     2011.49350        -7.26351         5.29629
     2011.49624         0.45278         5.33378
     2011.49898        -5.45993         5.36809
     2011.50172        -2.41664         5.26358
     2011.50445        -3.34135         5.30905
     2011.50719        -5.10105         5.45185
     2011.50993        -8.48976         5.37606
     2011.51267        -2.99947         5.62098
     2011.51541         0.06882         5.38723
     2011.51814         1.53011         5.28512
     2011.52088        -5.13660         5.31544
     2011.52362        -0.93030         5.23008
     2011.52636        -3.72001         5.24124
     2011.52909        -1.63172         5.25720
     2011.53183        -3.10643         5.32262
     2011.53457        -1.84514         5.22529
     2011.53731        -9.25985         5.26358
     2011.54005        -3.82955         5.24763
     2011.54278        -6.49326         5.32182
     2011.54552        -2.47897         5.35213
     2011.54826        -4.18168         5.34256
     2011.55100        -4.81639         5.29230
     2011.55374        -7.02510         5.32980
     2011.55647         1.91420         5.21731
     2011.55921        -4.21851         5.28831
     2011.56195        -4.17722         5.32501
     2011.56469         0.87707         5.33059
     2011.56742         2.37236         5.33618
     2011.57016        -5.59635         5.36569
     2011.57290        -0.34905         5.28751
     2011.57564         0.94024         5.30028
     2011.57838       -11.14947         5.40159
     2011.58111       -10.09918         5.47898
     2011.58385        -8.93389         5.40319
     2011.58659        -1.96860         5.55875
     2011.58933         1.75870         5.27395
     2011.59206         0.46499         5.27236
     2011.59480        -8.74872         5.34415
     2011.59754        -0.89343         5.31942
     2011.60028         3.81786         5.35532
     2011.60302        -2.24485         5.22609
     2011.60575         1.70945         5.22928
     2011.60849         5.56274         5.60183
     2011.61123         3.06103         5.52844
     2011.61397        -0.30668         5.35772
     2011.61671         4.04561         5.36569
     2011.61944         4.07190         5.45345
     2011.62218         2.14519         5.34336
     2011.62492        -3.48051         5.33857
     2011.62766         2.00278         5.30586
     2011.63039        -0.87993         5.29629
     2011.63313         4.21936         5.34894
     2011.63587         3.81965         5.29071
     2012.48734        -2.26365         5.16227
     2012.49008         2.97564         5.10403
     2012.49282         0.85393         5.10403
     2012.49556         1.01922         5.17423
     2012.49829         0.70352         5.16067
     2012.50103        11.87381         5.23327
     2012.50377        17.54210         5.23965
     2012.50651        10.11539         5.15908
     2012.50924         2.87968         5.28273
     2012.51198         7.35597         5.29150
     2012.51472        -4.35673         5.23566
     2012.51746         0.38256         5.13514
     2012.52020        -0.32415         5.18141
     2012.52293         3.10214         5.17024
     2012.52567         7.75343         5.15509
     2012.52841         0.54572         5.20694
     2012.53115         9.01501         5.14073
     2012.53389        -1.41869         5.21572
     2012.53662         0.41960         5.17583
     2012.53936        -1.07211         5.20215
     2012.54210         7.93018         5.17742
     2012.54484         6.97047         5.15748
     2012.54757        11.82076         5.24284
     2012.55031        12.30706         5.17503
     2012.55305         3.64835         5.15987
     2012.55579         5.03964         5.12238
     2012.55853        12.20793         5.22449
     2012.56126         3.47522         5.26597
     2012.56400         7.42051         5.15908
     2012.56674         3.06281         5.13435
     2012.56948         5.93810         5.13754
     2012.57222         5.36239         5.19657
     2012.57495         1.51668         5.18859
     2012.57769         4.25097         5.13275
     2012.58043         8.59126         5.12397
     2012.58317         5.14256         5.16227
     2012.58590         6.31585         5.15668
     2012.58864         6.58814         5.13754
     2012.59138        -0.39257         5.16386
     2012.59412         5.00572         5.19019
     2012.59686        11.02701         5.13435
     2012.59959         6.10431         5.25560
     2013.31144        -3.88187         5.27794
     2013.31417        -2.39158         5.25162
     2013.31691        -3.89129         5.30746
     2013.31965        -3.76000         5.21731
     2013.32239        -8.88171         5.24922
     2013.32512        -4.78141         5.24842
     2013.32786        -0.13012         5.19577
     2013.33060        -0.52183         5.20215
     2013.33334        -9.63854         5.17024
     2013.33608       -14.74925         5.27395
     2013.33881        -3.64396         5.22050
     2013.34155        -3.43466         5.26837
     2013.34429        -4.74937         5.21013
     2013.34703        -4.25108         5.16386
     2013.34977        -2.18079         5.18779
     2013.35250        -3.80050         5.25959
     2013.35524        -2.33921         5.30905
     2013.35798        -1.43291         5.20614
     2013.36072        -8.05162         5.15908
     2013.36345         6.11267         5.15908
     2013.36619        -2.17404         5.22928
     2013.36893         2.31125         5.22210
     2013.37167        -9.43846         5.27315
     2013.37441        -0.18316         5.23566
     2013.37714         4.07213         5.16705
     2013.37988        -4.26158         5.18859
     2013.38262        -8.71929         5.21731
     2013.38536        -3.23800         5.24204
     2013.38810         2.45229         5.29150
     2013.39083        -1.36641         5.16466
     2013.39357        -4.91812         5.14392
     2013.39631        -4.13983         5.18141
     2013.39905        -8.01254         5.17902
     2015.11294         0.64402         5.40239
     2015.11568         6.79931         5.27156
     2015.11842        -4.05240         5.37447
     2015.12115         3.01489         5.29709
     2015.12389         1.15919         5.30267
     2015.12663         0.89648         5.30108
     2015.12937         1.95777         5.32262
     2015.13201        -0.17088         5.46701
     2016.61059        -7.90949         5.27714
     2016.61328        -3.51917         5.16785
     2016.61602        -8.55588         5.17583
     2016.61876        -4.86459         5.14392
     2016.62150        -2.72130         5.16705
     2016.62423         1.57200         5.32262
     2016.62697        -6.32871         5.18221
     2016.62971        -5.78342         5.14871
     2016.63245        -7.22913         5.26278
     2016.63519         2.81616         5.16147
     2016.63792         0.39845         5.16067
     2016.64066         1.16275         5.09206
     2016.64340        -2.40896         5.15110
     2016.64614        -3.95867         5.17423
     2016.64888        -3.45938         5.10962
     2016.65161        -0.76909         5.22449
     2016.65435        -1.09980         5.13993
     2016.65709        -5.39950         5.20295
     2016.65983        -8.32221         5.15908
     2016.66256        -9.18692         5.22369
     2016.66530         0.54537         5.12796
     2016.66804         2.63766         5.13115
     2016.67078         4.32095         5.23566
     2016.67352         7.31625         5.07611
     2016.67625         6.37854         5.12796
     2016.67899         2.13483         5.08169
     2016.68173         4.90312         5.09845
     2016.68447         3.06041         5.31544
     2016.68721         1.01470         5.47738
     2016.68994         1.90500         5.18620
     2016.69268        -6.27971         5.15828
     2016.69542        -1.28342         5.06813
     2016.69816         5.33187         5.12557
     2016.70089         2.17616         5.07930
     2016.70363        -1.91555         5.29469
     2016.70637         1.69775         5.50371
     2016.70911        -3.44196         5.40399
     2016.71185        -0.16867         5.13754
     2016.71458         4.66062         5.11999
     2016.71732         3.55591         5.11759
     2016.72006         7.47620         5.13993
     2016.72280        14.78750         5.22688
     2016.72554         5.37179         5.36729
     2016.72827         2.41808         5.16865
     2016.73101         1.54637         5.09765
     2016.73375        -2.87334         5.11919
     2016.73649        -2.82305         5.12717
     2016.73922        -7.79876         5.12318
     2016.74196        -3.15146         5.19657
     2016.74470        -8.63217         5.10323
     2016.74744         1.84112         5.03702
     2016.75018         8.19341         5.11440
     2016.75291         1.76070         5.11201
     2016.75565         3.99199         5.17024
     2016.75839         1.53329         5.10962
     2016.76113         8.73158         5.04899
     2016.76387         2.40687         5.11839
     2016.76660        -4.89684         5.11440
     2016.76934         0.86145         5.12956
     2016.77208         1.26274         5.10882
     2016.77482         9.54404         5.08808
     2016.77755         5.86733         5.14551
     2016.78029        -4.00238         5.12637
     2016.78303        -2.79109         5.18381
     2016.78577         8.34420         5.31863
     2016.78851         7.30049         5.57311
     2016.79119        -7.96318         5.77734
     2016.79672         5.43937         5.25800
     2016.80220        -0.91205         5.15349
     2016.80493         3.06124         5.11041
     2016.80767         2.21154         5.13115
     2016.81041        -1.23917         5.08409
     2016.81315        -5.48788         5.16785
     2016.81588        -0.70559         5.15429
     2016.81862        -5.34530         5.09206
     2016.82136        -1.74501         5.16626
     2016.82410        -7.64271         5.09526
     2016.82957         3.31287         5.10323
     2016.83505         0.90145         5.06335
     2016.83779         4.05674         5.17024
     2016.84052        -4.50096         5.08728
     2016.84326         0.36033         5.08808
     2016.84600         0.18562         5.08329
     2016.84874         3.34491         5.09845
     2016.85148        -2.76180         5.08409
     2016.85421        -4.96351         5.14551
     2016.85695        -0.61922         5.18859
     2016.85969        -1.15192         5.18221
     2016.86243        -2.93263         5.12158
     2016.86517         0.83866         5.13275
     2016.86790         1.98395         5.08728
     2016.87064         0.35624         5.16306
     2016.87338         2.21353         5.11999
     2016.87612        -0.48617         5.16306
     2016.87885        -0.47188         5.10004
     2016.88159        -8.13659         5.12796
     2016.88433        -2.83130         5.13115
     2016.88707         3.14299         5.12717
     2016.88981         0.99928         5.08329
