# ================= DQRFIT RESULTS ================
# INPUT FILE: series/V081.rad
# OUTPUT: LDETRENDED
# FILTER FUNCTION: f(t)
# f(t)=+line(t)
# line(t)=+P 1+P 2*t
# heav(t)=(t<0?0:1)
# TOTAL OBSERVATIONS MTOT=  343
# INITIAL TIME INTERVAL= 2017.0568 - 2016.0000 =  1.0568
# TOTAL OBSERVATIONS AFTER PREFILTER M=  343
# TIME-SPAN= 2017.0568 - 2016.0000 =  1.0568
# OBSERVATIONS: USED M=   343 REJECTED MTOT-M=     0 %USED=  100.0000
# N=  2 PARAMETERS
# MAXSIG= 175.00000
# MAXRES=  19.56558
# SCALE FACTOR FOR LENGTHS: SCL=  10.00000
# SCALE FACTOR FOR SIGMAS: SCLSIG=   1.00000
# CHI^2=   1390.547 DOF=   341 CHI^2/DOF=   4.07785
# RMS=      7.300 SDEV=      7.310 MEAN=    0.00939
#  P #       PARAMETER +-    SIGMA %error PARAMETER NAME
# P 1 =    -22921.79354 +- 2682.097  11.70 YZERO                              
# P 2 =        11.39812 +-    1.330  11.67 SLOPE                              
#       T            LDETRENDED       SIG_OBS
     2016.00000        -1.93787         7.36307
     2016.00274        -5.98381         7.34993
     2016.00548        -8.56551         7.16387
     2016.00821        -9.34625         7.22844
     2016.01095        -2.33174         7.27754
     2016.01369        -2.12112         7.22267
     2016.01643       -10.39702         7.82681
     2016.01916        -4.17672         7.82821
     2016.02190        -6.53686         7.30375
     2016.02464        -6.39635         7.36902
     2016.02738         1.49342         7.55475
     2016.03012        -6.23089         7.18053
     2016.03285        -1.70915         7.14265
     2016.03559        -3.00484         7.08595
     2016.03833        -6.24585         7.29389
     2016.04107       -11.13507         7.30085
     2016.04381         1.60152         7.57545
     2016.04654        -9.67482         7.18420
     2016.04928        -6.62185         7.04566
     2016.05202        -3.06015         7.02046
     2016.05476       -12.55679         7.18144
     2016.05749       -10.07979         7.28958
     2016.06023        -0.07063         7.08716
     2016.06297        -9.41217         7.07388
     2016.06571        -4.74454         7.24639
     2016.06845        -7.55000         7.42862
     2016.07118        -6.65971         7.80235
     2016.07392       -14.22874         7.43395
     2016.07666        -4.65130         7.41550
     2016.07940         6.65515         7.23476
     2016.08214         8.13532         7.43323
     2016.08487        -2.17751         7.98235
     2016.13415         3.83322       154.43365
     2016.13689        -8.84311         7.28618
     2016.13963        -7.31381         7.32423
     2016.14237        -3.41153         7.94816
     2016.14511        -7.92719         7.94033
     2016.14784         2.74905        22.59570
     2016.18617         1.74896        19.71109
     2016.18891        12.77205         7.62143
     2016.19165        -1.82434         7.13858
     2016.19439        12.31386         7.15382
     2016.19713         2.10379         7.21627
     2016.19986       -13.10762         7.34069
     2016.20260        -0.35399         7.26811
     2016.20534       -10.02721         7.77811
     2016.20808        -2.89809         7.35888
     2016.21081        -2.58846         7.52436
     2016.21355        -5.42995         7.25566
     2016.21629        -5.47241         7.56533
     2016.21903        -4.43900         7.67265
     2016.22177         0.55175         6.96292
     2016.22450        -8.40123         7.30787
     2016.22724       -11.54864         7.43585
     2016.22998        -0.49553         7.19072
     2016.23272        -1.00090         7.55892
     2016.23546        -5.39210         7.28633
     2016.23819        -0.95815         7.07654
     2016.24093         5.39112         7.15986
     2016.24367        -0.54933         7.35326
     2016.24641         3.09190         7.59710
     2016.24914        -5.07443         7.16493
     2016.25188        -2.33539         7.59049
     2016.25462        -1.76818         7.10873
     2016.25736        -3.66268         7.29133
     2016.26010        -8.64012         7.07506
     2016.26283        -2.92031         7.15726
     2016.26557       -12.46267         7.68803
     2016.27652        18.84571        20.67767
     2016.27926       -11.78018         7.29395
     2016.28200        -4.65847         7.43471
     2016.28474        -7.13343         7.23611
     2016.28747        -7.43793         7.50113
     2016.29021       -11.86485         7.16909
     2016.29295       -11.70705         7.11529
     2016.29569        -5.23699         7.22285
     2016.29843         5.77489         7.22575
     2016.30116        -0.65352         7.93039
     2016.30390        -3.61876         7.23982
     2016.30664        -6.30605         7.24184
     2016.30938         0.91896         7.10354
     2016.31211        -3.13193         7.06729
     2016.31485        -2.35854         7.12275
     2016.31759        -9.40417         7.26416
     2016.32033        -9.31450         7.09047
     2016.32307        -5.63584         7.17421
     2016.32580        -0.15600         6.99959
     2016.32854        -5.27486         6.98618
     2016.33128        -4.54997         7.05917
     2016.33402         1.94266         7.21386
     2016.33676       -13.00949         7.22231
     2016.33949         2.48966         7.18738
     2016.34223         0.94848         7.13143
     2016.34497         2.00891         7.08405
     2016.34771         3.02779         7.32972
     2016.35044         4.49236         7.47753
     2016.35318        -5.04079         7.15798
     2016.35592        -5.69185         7.09058
     2016.35866         2.54432         6.99114
     2016.36140        -1.56409         7.16939
     2016.36413        -1.53336         7.28108
     2016.36687         6.59431         7.25572
     2016.36961        -1.86149         7.26103
     2016.37235         1.96575         7.09043
     2016.37509         1.87815         7.17272
     2016.37782         1.54601         7.15832
     2016.38056         4.78262         7.30741
     2016.38330         2.95681         7.11844
     2016.38604        -1.28418         7.05825
     2016.38877        -1.73277         7.19058
     2016.39151         4.66894         7.05090
     2016.39425         0.72737         7.08492
     2016.39699        -3.92632         7.20967
     2016.39973         3.34127         7.18731
     2016.40246         0.27155         7.22997
     2016.40520        -2.84563         7.34498
     2016.40794        -1.64836         7.18223
     2016.41068        -3.17142         7.20363
     2016.41342         2.98906         7.10046
     2016.41615         8.05054         7.18074
     2016.41889        -1.73008         7.06889
     2016.42163         6.35795         7.66711
     2016.42437         2.54079         7.36201
     2016.42710         4.22477         7.07757
     2016.42984         8.34317         7.09151
     2016.43258        18.59497         7.28337
     2016.43532         2.09063         7.17324
     2016.43806        11.93238         7.14141
     2016.44079         3.62089         7.30914
     2016.44353         7.73650         7.06784
     2016.44627         5.30089         6.99908
     2016.44901         6.24312         7.20777
     2016.45175        -4.46198         7.10855
     2016.45448         0.07716         7.68069
     2016.45722         6.47521         7.26853
     2016.45996         7.56456         6.95965
     2016.46270         1.77316         7.04474
     2016.46543         3.05794         7.13975
     2016.46817         0.41877         7.10276
     2016.47091        -1.34334         8.20119
     2016.47365         2.27098         7.05511
     2016.47639        -0.22317         7.36098
     2016.47912        -2.68515         7.22347
     2016.48186         8.81649         7.72096
     2016.48460        12.61550         7.17955
     2016.48734         5.37887         7.13622
     2016.49008         9.91293         7.14256
     2016.49281         7.62179         7.28038
     2016.49555         0.42524         7.31309
     2016.49829         3.14611         7.10332
     2016.50103         6.95829         7.13446
     2016.50376         3.68854         7.31107
     2016.50650        18.52689         7.14983
     2016.50924         3.33339         7.52375
     2016.51198         6.16045         7.07849
     2016.51472         2.84050         7.29373
     2016.51745         8.66098         7.33670
     2016.52019         7.42808         7.04540
     2016.52293         3.27790         7.08364
     2016.52567         7.70362         7.29635
     2016.52841         4.43361         7.09077
     2016.53114        -0.46663         7.11648
     2016.53388        -1.00041         7.22905
     2016.53662         3.26054         8.06438
     2016.53936         5.07608         7.01494
     2016.54209        10.41562         6.95574
     2016.54483         8.64817         6.97016
     2016.54757         1.54158         7.22953
     2016.55031         1.61391         7.83694
     2016.55305        12.48975         7.09875
     2016.55578         2.47187         7.41861
     2016.55852        10.71353         7.01472
     2016.56126         3.89559         7.17376
     2016.56400         8.33097         7.33599
     2016.56674         5.62161         7.32412
     2016.56947         6.48990         7.53951
     2016.57221         5.03598         7.00174
     2016.57495         5.17616         7.18697
     2016.57769         8.68711         7.33777
     2016.58042        14.22633         7.18938
     2016.58316         6.72502         7.30808
     2016.58590         6.34977         7.27549
     2016.58864         7.58528         7.07639
     2016.59138        10.68369         7.47626
     2016.60507         2.53979         7.34569
     2016.60780         1.34428         7.23872
     2016.61054         8.86073         7.07549
     2016.61328         8.81303         7.33676
     2016.61602        10.79830         7.00127
     2016.61875         8.95135         7.12320
     2016.62149         6.72455         6.98552
     2016.62423         5.53524         7.18554
     2016.62697        15.09144         7.00411
     2016.62971         8.75117         7.51107
     2016.63244        10.25772         7.38572
     2016.63518        10.26559         7.30163
     2016.63792        19.56558         7.35477
     2016.64066         9.91132         7.65805
     2016.64339         8.69822         7.35679
     2016.64613         8.50462         6.99303
     2016.64887         7.46361         8.22748
     2016.65161         7.83827        10.45187
     2016.66804         7.56432         7.02941
     2016.67077        11.16349         7.05079
     2016.67351         6.16883         6.91322
     2016.67625         5.99446         7.04163
     2016.67899         9.19194         7.00085
     2016.68172         9.17151         6.95492
     2016.68446         2.40973         7.30092
     2016.68720         1.18467         7.34687
     2016.68994        12.14566         8.82024
     2016.69268        -0.16282         7.31770
     2016.69541        14.78542         6.97245
     2016.69815        18.32032         6.93332
     2016.70089         8.78797         7.29628
     2016.70363         8.97418         7.15536
     2016.70637         5.79361         7.34739
     2016.70910         4.75087         7.29602
     2016.71184        19.32742         7.03279
     2016.71458         5.82227         6.89428
     2016.71732        12.22053         7.15331
     2016.72005         4.54025         7.11648
     2016.72279        11.60240         6.93786
     2016.72553        -0.98701         7.18459
     2016.73101         0.60510         6.88946
     2016.73374         0.37745         7.06857
     2016.73648         9.42359         7.48657
     2016.73922        11.34677         7.25704
     2016.74196         8.12355         7.04002
     2016.74470         5.95095         7.14810
     2016.74743         9.39663         7.21510
     2016.75017        10.97559         6.89513
     2016.75291        12.31600         7.01612
     2016.75565         6.57764         7.31698
     2016.75838         2.04794         7.25344
     2016.76112         8.36935         6.92286
     2016.76386         2.58488         7.09773
     2016.76660         4.36052         7.02634
     2016.76934         9.92939         7.48739
     2016.77207         0.04055         7.49039
     2016.77481        -6.79269         7.00813
     2016.77755         7.78849         6.87281
     2016.78029         1.58013         7.04611
     2016.78303         2.11905         7.38895
     2016.78576         5.51832         7.16009
     2016.78850         0.14724         7.30119
     2016.79124        12.33663         7.24471
     2016.79398         3.26908         7.22878
     2016.79671         1.17515         7.04572
     2016.79945        -2.86293         7.05152
     2016.80219       -19.31259         7.20204
     2016.80493        -7.53806         7.19294
     2016.80767         4.65354         7.23092
     2016.81040        -0.09125         6.85764
     2016.81314         1.54461         6.96494
     2016.81588        -3.52749         6.98528
     2016.81862        -9.26581         7.07929
     2016.82136        -8.98668         7.25101
     2016.82409        -5.85470         8.29540
     2016.82683        -2.10103         6.95641
     2016.82957        -2.92933         6.94439
     2016.83231        -2.32921         7.02692
     2016.83504        -6.23700         6.98330
     2016.83778        -7.00756         7.49153
     2016.84052        -8.53547         7.10363
     2016.84326        -1.89297         7.25797
     2016.84600        -1.08843         7.26050
     2016.84873         0.60483         7.78078
     2016.85147        -7.02015         7.13857
     2016.85421         4.74110         6.99871
     2016.85695        -7.30092         7.24807
     2016.85969        -1.64042         7.23442
     2016.86242         0.62406         6.98763
     2016.86516         4.38681         7.08942
     2016.86790        -2.84865         7.19858
     2016.87064         0.26596         7.03039
     2016.87337         7.92601         7.01761
     2016.87611         1.20810         6.96854
     2016.87885        -4.48604         7.17272
     2016.88159       -10.69279         6.97468
     2016.88433        -1.05596         7.42572
     2016.88706        -0.49853         6.97713
     2016.88980         4.20827         7.79523
     2016.89254         0.38871         6.94983
     2016.89528       -11.44829         7.12432
     2016.89802       -11.19934         7.46034
     2016.90075       -17.89100         7.04059
     2016.90349       -10.09485         7.37657
     2016.90623        -2.21433         6.96420
     2016.90897        -1.53814         7.31068
     2016.91170        -1.54958         6.99610
     2016.91444       -13.97873         7.04834
     2016.91718        -5.50491         9.51288
     2016.91992       -11.38057         9.32693
     2016.92266       -10.21851         7.08377
     2016.92539        -4.81012         6.90967
     2016.92813        -5.39414         7.37955
     2016.93087       -10.59946         7.09451
     2016.93361        -7.85615         7.48122
     2016.93908        -5.28890         7.90244
     2016.94182        -9.65939         6.96739
     2016.94456        -6.65996         9.40721
     2016.94730        -7.93390         7.24422
     2016.95003       -14.30821         8.39244
     2016.95277       -11.07087         7.35527
     2016.95551        -6.89310         6.99337
     2016.95825        -7.01375         7.00826
     2016.96099        -2.81948         7.32782
     2016.96372       -10.30848         7.24126
     2016.96646       -12.97221         7.25025
     2016.96920         0.68216         7.63330
     2016.97194        -6.61447         7.03535
     2016.97467        -7.47297         7.34284
     2016.97741        -3.93507         7.78238
     2016.98015        -1.76250         7.09756
     2016.98289        -9.73313         7.01955
     2016.98563        -4.76649         7.10545
     2016.98836        -6.96042         6.97039
     2016.99110        -6.92844         7.17817
     2016.99384        -3.19970         7.95874
     2016.99658        -9.91140         7.10149
     2016.99932        -1.77500         6.93311
     2017.00205        -5.88645         7.03107
     2017.00479       -10.45806         6.99657
     2017.00753        -7.54715         7.16114
     2017.01027        -7.83130         7.00882
     2017.01300        -5.91910         7.16121
     2017.01574         1.00969         7.28074
     2017.01848        -3.96067         7.53846
     2017.02122        -6.16044         7.19948
     2017.02396        -9.60968         7.32827
     2017.02669       -11.93622         7.88803
     2017.02943        -7.82299         7.31187
     2017.03217        -6.77313         7.07595
     2017.03491       -11.11933         7.19172
     2017.03765        -6.69667         7.15664
     2017.04038       -12.77076         7.06798
     2017.04312        -7.00266         7.02482
     2017.04586        -4.10196         7.37708
     2017.04860        -0.49029         8.53513
     2017.05133         5.47376         7.66816
     2017.05407         4.43720         7.64340
     2017.05681        -0.23269         6.98857
