# ================= DQRFIT RESULTS ================
# INPUT FILE: series/WAPS.rad
# OUTPUT: LDETRENDED
# FILTER FUNCTION: f(t)
# f(t)=+line(t)+annual(t)
# line(t)=+P 1+P 2*t
# annual(t)=+P 3*sin(2*pi*t+P 4)
# heav(t)=(t<0?0:1)
# TOTAL OBSERVATIONS MTOT= 1921
# INITIAL TIME INTERVAL= 2021.2457 - 2015.8631 =  5.3826
# TOTAL OBSERVATIONS AFTER PREFILTER M= 1918
# TIME-SPAN= 2021.2457 - 2015.8631 =  5.3826
# OBSERVATIONS: USED M=  1918 REJECTED MTOT-M=     3 %USED=   99.8438
# N=  4 PARAMETERS
# MAXSIG= 175.00000
# MAXRES=  31.15121
# SCALE FACTOR FOR LENGTHS: SCL=  10.00000
# SCALE FACTOR FOR SIGMAS: SCLSIG=   1.00000
# CHI^2=   1219.748 DOF=  1914 CHI^2/DOF=   0.63728
# RMS=      4.536 SDEV=      4.537 MEAN=   -0.00164
#  P #       PARAMETER +-    SIGMA %error PARAMETER NAME
# P 1 =      2105.57894 +-  127.169   6.04 YZERO                              
# P 2 =        -1.04449 +-    0.063   6.03 SLOPE                              
# P 3 =         5.82968 +-    0.140   2.40 ANNUAL AMPLITUDE                   
# P 4 =        -2.82713 +-    0.032   1.14 ANNUAL PHASE                       
#       T            LDETRENDED       SIG_OBS
     2015.86310         9.09570         6.38158
     2015.86584        12.37356         4.33954
     2015.86858         1.39442         4.31399
     2015.87132         0.49428         4.27248
     2015.87405        -2.25386         4.28126
     2015.87679         2.12700         4.32517
     2015.87953         2.07586         4.33475
     2015.88227         6.01572         4.30042
     2015.88501        -2.14042         4.27488
     2015.88774        -1.66357         4.29324
     2015.89048         5.36629         4.30282
     2015.89322         5.41315         4.30521
     2015.89573         5.05178         4.69957
     2015.89869         6.15987         4.37546
     2015.90143        -0.90427         4.25891
     2015.90417        -1.44241         4.27567
     2015.90691         2.36245         4.26051
     2015.90965         0.93631         4.28366
     2015.91238         2.88717         4.33794
     2015.91512         1.09303         4.27647
     2015.91786         0.44989         4.27248
     2015.92060         2.78275         4.32916
     2015.92334         9.77361         4.39781
     2015.92607        -3.38353         4.30122
     2015.92881         0.29833         4.32756
     2015.93155        -1.86681         4.40979
     2015.93429         4.56605         4.45210
     2015.93702         4.00091         4.46407
     2015.93976        10.00377         4.43214
     2015.94250         3.49063         4.49361
     2015.94524         1.34349         4.38504
     2015.94798         8.17335         4.46407
     2015.95071         6.32221         4.25811
     2015.95345        -3.43993         4.23576
     2015.95619         3.45993         4.32198
     2015.95893         0.54779         4.46008
     2015.96167         1.60065         4.41777
     2015.96440         4.88551         4.28685
     2015.96720         8.01642         4.43933
     2015.96988         4.52822         4.24773
     2015.97262        12.03808         4.27488
     2015.97535         7.39194         4.30761
     2015.97809         4.92680         4.26929
     2015.98083         1.68166         4.29803
     2015.98357        -8.00448         4.26210
     2015.98631        -5.73462         4.32677
     2015.98904        -3.41576         4.29084
     2015.99178        -2.89390         4.29084
     2015.99452        -1.90604         4.26450
     2015.99726        -2.25018         4.27807
     2016.00000         0.27168         4.27647
     2016.00273        -2.37546         4.30521
     2016.00547        -2.19760         4.29004
     2016.00821        -4.13974         4.29803
     2016.01095         5.48512         4.31080
     2016.01368        -2.29402         4.30282
     2016.01642        -4.30916         4.39063
     2016.01916        -1.84730         4.49600
     2016.02190         2.09556         4.41138
     2016.02464         0.92442         4.28525
     2016.02737        -1.63772         4.31000
     2016.03011        -2.20286         4.27967
     2016.03285        -1.64600         4.25891
     2016.03559        -3.34814         4.25811
     2016.03833        -4.93028         4.35710
     2016.04106         2.95158         4.31319
     2016.04380         1.88044         4.31240
     2016.04654         2.72230         4.42017
     2016.04928         2.26615         4.24694
     2016.05201        -7.05199         4.22857
     2016.05475        -3.16613         4.27248
     2016.05749        -0.24927         4.36508
     2016.06023        -1.95541         4.26450
     2016.06297        -2.08955         4.24853
     2016.06570        -2.63869         4.37466
     2016.06844        -2.85183         4.49042
     2016.07118        -5.38297         4.38903
     2016.07392        -3.54511         4.36668
     2016.07666         2.59675         4.50958
     2016.07939         7.15361         4.33874
     2016.08213        -5.40953         4.58302
     2016.08487        -4.32667         4.41378
     2016.08761        -7.98081         4.34672
     2016.09034        -5.42395         4.30601
     2016.09308        -4.81709         4.39462
     2016.09582       -13.58223         4.31559
     2016.09856       -11.29537         4.34513
     2016.10130       -15.64051         4.31719
     2016.10403       -11.92265         4.82650
     2016.10677       -10.65979         4.28525
     2016.10951        -4.04993         4.47126
     2016.11225        -7.81707         4.31798
     2016.11498        -4.81821         4.38584
     2016.11772       -13.12135         4.47046
     2016.12040       -10.79655         4.41538
     2016.12594        -8.17377         4.44332
     2016.12867         1.31309         4.29723
     2016.13141        -0.87406         4.33954
     2016.13415         0.21180         4.31080
     2016.13689        -3.05534         4.28126
     2016.13963        -6.42648         4.27248
     2016.14236       -10.75162         4.25332
     2016.14510       -10.30576         4.23257
     2016.14784        -6.60290         4.27488
     2016.15058        -5.76704         4.28046
     2016.15331        -3.15018         4.32357
     2016.15605        -2.91832         4.20862
     2016.15879        -4.78646         4.41298
     2016.16153        -8.28060         4.36508
     2016.16427        -7.79074         4.31958
     2016.16700        -1.84488         4.31240
     2016.16974        -6.65602         4.31240
     2016.17248        -3.79616         4.38744
     2016.17522        -1.99130         4.32677
     2016.17796         9.00056         4.41937
     2016.18069        -1.97658         4.38185
     2016.18343        -8.31472         4.43134
     2016.18600        -4.22804         4.53113
     2016.19164         1.03686         4.20782
     2016.19438        -2.02328         4.21181
     2016.19712        -1.75842         4.22618
     2016.19986        -2.27056         4.34113
     2016.20260       -10.57870         4.31479
     2016.20533       -11.11884         4.40739
     2016.20807        -7.14898         4.32597
     2016.21629        -3.98541         4.22857
     2016.21902        -6.85755         4.27887
     2016.22176        -4.01569         4.14795
     2016.22450        -8.39283         4.17669
     2016.22724        -4.56797         4.22538
     2016.22997        -2.88011         4.30441
     2016.23271        -4.94425         4.19265
     2016.23545        -2.72739         4.24135
     2016.23819        -8.58753         4.16311
     2016.24093        -5.03967         4.26450
     2016.24366        -5.28781         4.19345
     2016.24640         1.30205         4.21660
     2016.24914        -5.40909         4.24294
     2016.25188        -3.31023         4.24534
     2016.25462        -7.46637         4.21181
     2016.25735        -8.21251         4.27647
     2016.26009        -9.76365         4.21900
     2016.26283       -10.88679         4.23257
     2016.26557        -5.29493         4.19505
     2016.26830        -4.50707         4.18706
     2016.27104        -1.43121         4.23257
     2016.27378         1.51065         4.21421
     2016.27652        -5.45649         4.21101
     2016.27926        -4.13663         4.24694
     2016.28199        -8.55177         4.24773
     2016.28473        -3.81391         4.25093
     2016.28747        -7.85105         4.21979
     2016.29021        -6.92419         4.26769
     2016.29295        -5.81433         4.23975
     2016.29568        -5.61248         4.21580
     2016.29842        -1.84862         4.30122
     2016.30116        -0.61176         4.34034
     2016.30390        -8.47890         4.28286
     2016.30663         1.03696         4.31399
     2016.30937        -3.83618         4.24694
     2016.31211        -5.70832         4.21979
     2016.31485        -2.34646         4.18227
     2016.31759        -0.90560         4.26051
     2016.32032        -8.04774         4.26131
     2016.32306        -8.58188         4.23177
     2016.32580        -9.88402         4.25971
     2016.32854        -5.12016         4.19265
     2016.33128        -3.99030         4.42336
     2016.33401        -2.06744         4.27647
     2016.33675        -1.41958         4.31080
     2016.33949        -3.84372         4.26210
     2016.34223        -5.00086         4.27408
     2016.34479        -0.35618         4.65965
     2016.35318        -6.79742         4.34273
     2016.35592        -9.17356         4.19664
     2016.35865        -7.07470         4.18706
     2016.36139        -2.51784         4.25572
     2016.36413         6.28202         4.28845
     2016.36687         2.83288         4.30761
     2016.36961         4.62374         4.19105
     2016.37234         5.37760         4.24215
     2016.37508         1.13345         4.21421
     2016.37782        -6.07069         4.26370
     2016.38056        -0.05183         4.25173
     2016.38329         2.37203         4.20383
     2016.38603        -1.52111         4.20063
     2016.38877         5.26675         4.22618
     2016.39151        -0.32939         4.19265
     2016.39425        -0.87153         4.30282
     2016.39698         7.97133         4.24933
     2016.39972        10.98419         4.23097
     2016.40246        -3.84695         4.26051
     2016.40520        -2.57009         4.23496
     2016.40794        -3.71423         4.24454
     2016.41067        -5.79337         4.23736
     2016.41341        -6.94151         4.21021
     2016.41615        -3.73165         4.21900
     2016.41889        -6.00079         4.28925
     2016.42162         5.22707         4.28605
     2016.42436        -9.01607         4.28845
     2016.42710         2.53579         4.18068
     2016.42984         2.55665         4.20622
     2016.43258         2.21651         4.21341
     2016.43531        10.01937         4.39781
     2016.43805         3.04123         4.33076
     2016.44079         2.82609         4.26530
     2016.44353        -3.36005         4.20223
     2016.44626        -4.15119         4.22139
     2016.44900        -0.45833         4.23656
     2016.45174         5.79853         4.27887
     2016.45448         1.88839         4.24454
     2016.45722        -0.56276         4.19744
     2016.45995         3.60510         4.18227
     2016.46269        -1.81904         4.19505
     2016.46543         1.87282         4.24773
     2016.46817         2.09668         4.23895
     2016.47091         7.02654         4.27727
     2016.47364         0.95040         4.17429
     2016.47638         3.32326         4.28046
     2016.47912         0.10512         4.33235
     2016.48186         1.15698         4.23336
     2016.48459         6.09284         4.27727
     2016.48733         1.76270         4.26849
     2016.49007         2.06356         4.20782
     2016.49281         3.88042         4.21341
     2016.49555         3.15628         4.21021
     2016.49828         0.89014         4.26051
     2016.50102         4.40700         4.24933
     2016.50376         1.50586         4.29084
     2016.50650         3.57672         4.30042
     2016.50924         4.21058         4.23815
     2016.51197        -0.43756         4.21979
     2016.51471         5.07630         4.24055
     2016.51745         1.58816         4.30761
     2016.52019        -1.97098         4.30761
     2016.52292         2.55488         4.23736
     2016.52566         1.16674         4.19026
     2016.52840         2.14760         4.18148
     2016.53114        -1.98754         4.17509
     2016.53388         0.98032         4.20702
     2016.53661         1.42018         4.24694
     2016.53935         4.30703         4.19984
     2016.54209         3.87589         4.17509
     2016.54483         7.97675         4.19984
     2016.54757         1.60561         4.18706
     2016.55030         5.93647         4.29004
     2016.55304         7.03533         4.23975
     2016.55578         5.92019         4.32916
     2016.55852         7.04005         4.22778
     2016.56125         5.92291         4.17828
     2016.56399         2.74877         4.19904
     2016.56673         2.76963         4.30122
     2016.56947         0.86649         4.31319
     2016.57221         9.58235         4.21261
     2016.57494         4.33121         4.27887
     2016.57768        11.49207         4.19664
     2016.58042         5.22293         4.17110
     2016.58316         2.91479         4.17110
     2016.58590         5.59265         4.24055
     2016.58863         6.95851         4.19425
     2016.59137         3.50437         4.19105
     2016.59411         6.74523         4.26290
     2016.59685         2.93809         4.21979
     2016.59958         1.39495         4.22379
     2016.60232        10.46581         4.20463
     2016.60506         2.16767         4.21979
     2016.60780         2.78053         4.17190
     2016.61054         5.20939         4.15194
     2016.61327         2.02425         4.21421
     2016.61601         1.74111         4.21500
     2016.61875         2.93797         4.28845
     2016.62149         2.44282         4.17349
     2016.62423         6.54768         4.22139
     2016.62696         6.55754         4.18307
     2016.62970         7.54240         4.23496
     2016.63244         5.93926         4.28446
     2016.63518         5.14012         4.16471
     2016.64065        18.74184         4.20782
     2016.64339         5.34970         4.19345
     2016.64613        10.23056         4.22379
     2016.64887         7.92442         4.19185
     2016.65160         8.07328         4.26370
     2016.65434         1.40814         4.27328
     2016.65708         7.03400         4.21979
     2016.65982         4.06986         4.27807
     2016.66256         1.75172         4.24853
     2016.66529         2.54958         4.27647
     2016.66803         4.03244         4.44172
     2016.67077        12.81330         4.34513
     2016.67351         7.90816         4.17828
     2016.67624        10.18602         4.19824
     2016.67898         7.23388         4.17828
     2016.68172        11.18474         4.17429
     2016.68446        11.63160         4.38504
     2016.68720         6.13246         4.39143
     2016.68993         6.63632         4.25173
     2016.69267         8.89318         4.32836
     2016.69541         9.65604         4.23975
     2016.69815         8.25190         4.18068
     2016.70089        11.64576         4.18068
     2016.70362        11.22361         4.28525
     2016.70636         6.86347         4.46248
     2016.70910         9.27533         4.41937
     2016.71184         9.98819         4.23975
     2016.71457        12.26005         4.15354
     2016.71731        14.79791         4.30122
     2016.72005         6.57577         4.17190
     2016.72279         8.57863         4.19824
     2016.72553         7.25049         4.28446
     2016.72826         7.51735         4.31240
     2016.73100         6.17621         4.18387
     2016.73374         4.90507         4.17589
     2016.73648         6.13893         4.21261
     2016.73921         5.29479         4.32517
     2016.74195         9.35965         4.22538
     2016.74469         4.36551         4.18946
     2016.74743         4.98637         4.14875
     2016.75017         6.77123         4.21660
     2016.75290         6.65009         4.23017
     2016.75564        13.39995         4.22299
     2016.75838         6.46481         4.35710
     2016.76112         8.90767         4.15034
     2016.76386         5.95253         4.21660
     2016.76659         9.54539         4.29084
     2016.76910         8.87501         4.77940
     2016.77207         8.05311         4.29563
     2016.77481         7.10597         4.20862
     2016.77754         4.93983         4.15274
     2016.78028         3.66869         4.19105
     2016.78302         0.61854         4.25652
     2016.78576        -1.90860         4.88318
     2016.78850        14.16126         4.29962
     2016.79123        13.14812         5.01170
     2016.79397         9.17598         4.17030
     2016.79671         7.92784         4.22299
     2016.79945         1.64270         4.23895
     2016.80219        -3.83844         4.32916
     2016.80492         4.17542         4.31958
     2016.80766         8.38728         4.17509
     2016.81040        -4.45086         4.23097
     2016.81314         4.19400         4.24614
     2016.81587        -1.70914         4.28286
     2016.81861        -3.90728         4.21261
     2016.82135         2.67058         4.23895
     2016.82409        -0.65456         4.18706
     2016.82683         2.32730         4.21341
     2016.82956         4.44816         4.18786
     2016.83230         7.23002         4.22458
     2016.83504         5.74688         4.21101
     2016.83778         0.14174         4.20383
     2016.84052       -11.52740         4.22778
     2016.84325        -0.18854         4.18786
     2016.84599        -0.16668         4.32517
     2016.84873         2.41618         4.21021
     2016.85147         5.16004         4.22618
     2016.85420         4.12590         4.34433
     2016.85694         4.49676         4.24294
     2016.85968        -0.64538         4.31080
     2016.86242         6.58948         4.26929
     2016.86516         4.46033         4.34752
     2016.86789         4.43919         4.24294
     2016.87063        -1.58795         4.33156
     2016.87337        11.12591         4.32437
     2016.87611         5.39677         4.21261
     2016.87885        -2.01837         4.24853
     2016.88158        -4.79551         4.18068
     2016.88432         2.44035         4.27248
     2016.88706         6.16121         4.23257
     2016.88980         6.51807         4.22618
     2016.89253         2.92493         4.20782
     2016.89527         1.09579         4.18547
     2016.89801         0.41865         4.20303
     2016.90075        -4.74049         4.22778
     2016.90349         1.48937         4.30361
     2016.90622         2.62823         4.28286
     2016.90896         3.25809         4.19984
     2016.91278         3.34608         9.08461
     2016.91444         0.93881         4.22857
     2016.91718         0.94967         4.33315
     2016.91991       -10.54047         4.32677
     2016.92265        -0.88561         4.27088
     2016.92539         0.82725         4.18706
     2016.92813       -12.19989         4.18068
     2016.93086        -5.47303         4.22379
     2016.93360        -3.05117         4.22059
     2016.93634        -3.20931         4.33395
     2016.93908        -5.01345         4.30122
     2016.94182         1.63141         4.22219
     2016.94455         0.33627         4.24534
     2016.94729        -1.59988         4.30761
     2016.95003        -2.67402         4.29962
     2016.95277        -4.65016         4.28605
     2016.95551        -0.78730         4.19425
     2016.95824         2.45956         4.18148
     2016.96098         0.07542         4.35151
     2016.96372        -5.40872         4.47685
     2016.96646        -5.95386         4.38903
     2016.96919         7.91100         4.36668
     2016.97193        -2.83914         4.18786
     2016.97467         4.15072         4.32996
     2016.97741        -0.15442         4.28446
     2016.98015         2.60544         4.32357
     2016.98288        -4.02670         4.21421
     2016.98562         3.60116         4.34433
     2016.98836         5.43502         4.23496
     2016.99110         2.97388         4.21900
     2016.99384         6.38574         4.25971
     2016.99657         4.16860         4.23815
     2016.99931         1.69246         4.21580
     2017.00205        -7.48268         4.17828
     2017.00479        -3.43382         4.18227
     2017.00752        -6.76396         4.23656
     2017.01026        -6.51910         4.61335
     2017.01300         1.17076         4.25971
     2017.01574         0.56962         4.22538
     2017.01848        -3.74252         4.43214
     2017.02121         0.61734         4.23257
     2017.02395         4.02620         4.61495
     2017.02669         0.67206         4.25492
     2017.02943         3.97391         4.20782
     2017.03216        -3.76023         4.18148
     2017.03490        -7.96337         4.31479
     2017.03764        -6.60851         4.21261
     2017.04038        -4.41765         4.22778
     2017.04312        -2.29079         4.21660
     2017.04585         5.75007         4.73549
     2017.04859         6.14193         4.40101
     2017.05133         7.58479         4.45689
     2017.05407         5.92165         4.38584
     2017.05686        12.87457         4.34672
     2017.05954        -1.19463         4.69398
     2017.06222         5.62717         4.66764
     2017.06479        -8.13915         5.31266
     2017.06776        -5.88405         4.41218
     2017.07049        -2.16819         4.88238
     2017.07295        -8.78363         4.91591
     2017.07591       -11.68653         4.81213
     2017.07814        -3.01221         7.01782
     2017.08150        -9.87969         4.67802
     2017.08732         2.91938        59.59840
     2017.09320        -9.84648         6.29457
     2017.09514        -0.33445         4.21820
     2017.09787         0.92841         4.21740
     2017.10061        -7.67173         5.51543
     2017.10215       -44.25013        78.19152
     2017.10614       -13.12996        60.41027
     2017.11287       -28.03093       103.20852
     2017.11419        -3.89155         4.41458
     2017.11704        -8.70458         4.60298
     2017.11978       -12.48072         6.18440
     2017.12251        -4.47886         9.00877
     2017.12765       -23.79749        17.24799
     2017.13172         2.34975         8.06199
     2017.13729        10.22457        75.78385
     2017.14168        -5.50284         4.21021
     2017.14436        -4.96004         6.02075
     2017.16084        -7.81582         4.20782
     2017.16358        -7.23596         4.35071
     2017.16632        -5.56710         4.17030
     2017.16906        -6.74924         4.21021
     2017.17180        -2.81338         4.23815
     2017.17453        -1.63552         4.21421
     2017.17727        -1.43066         4.26929
     2017.18001        -8.46680         4.22618
     2017.18275        -5.52194         4.22458
     2017.18548       -11.31308         4.21421
     2017.18822       -12.29022         4.27887
     2017.19096       -11.75137         4.29004
     2017.19370        -9.90651         4.22698
     2017.19644       -10.43265         4.22059
     2017.19917        -7.74079         4.20463
     2017.20191       -10.08193         4.22698
     2017.20465       -10.65307         4.34034
     2017.20739        -8.87221         4.22698
     2017.21013         0.48465         4.22778
     2017.21286        -7.98149         4.21740
     2017.21560        -9.68063         4.18068
     2017.21834        -5.84577         4.19026
     2017.22108        -1.90291         4.25013
     2017.22381        -6.22405         4.31319
     2017.22655        -5.51619         4.37067
     2017.22929       -10.89433         4.22698
     2017.23203       -11.67847         4.18547
     2017.23477        -6.82861         4.20303
     2017.23750       -12.83575         4.21660
     2017.24024        -8.13189         4.21021
     2017.24298       -10.43103         4.23097
     2017.24572       -11.10817         4.18307
     2017.24846       -12.91631         4.20143
     2017.25119        -9.65945         4.19744
     2017.25393       -13.68559         4.19984
     2017.25667        -9.40673         4.23895
     2017.25941       -15.61287         4.20622
     2017.26214       -11.48301         4.21979
     2017.26488        -0.17415         4.28525
     2017.26762        -4.92329         4.22219
     2017.27036        -2.04643         4.20622
     2017.27310       -12.40658         4.26609
     2017.27583       -11.45072         4.20862
     2017.27857       -11.64586         4.19664
     2017.28131       -14.81900         4.22458
     2017.28405        -9.45014         4.18467
     2017.28679       -12.53228         4.20223
     2017.28952       -11.66642         4.22299
     2017.29226        -8.69056         4.22379
     2017.29500        -9.38270         4.23496
     2017.29774       -12.66484         4.22618
     2017.30047       -14.72798         4.20463
     2017.30321        -9.76512         4.19744
     2017.30595       -10.32326         4.23895
     2017.30869       -13.63240         4.21740
     2017.31143        -8.34254         4.19185
     2017.31416        -8.92868         4.24055
     2017.31690        -4.30482         4.24853
     2017.31964       -12.48396         4.29004
     2017.32238       -13.25310         4.26689
     2017.32512       -15.26124         4.19185
     2017.32785        -9.21738         4.17988
     2017.33059       -16.17052         4.17030
     2017.33333       -13.24566         4.17908
     2017.33607       -15.85880         4.17589
     2017.33880       -10.27594         4.25332
     2017.34154        -2.75408         4.49281
     2017.34428       -15.12722         4.21421
     2017.34702        -9.20936         4.20862
     2017.34976        -5.57150         4.18467
     2017.35249       -10.49564         4.16631
     2017.35523       -13.44679         4.20303
     2017.35797       -10.84893         4.22059
     2017.36071        -7.30907         4.23336
     2017.36344       -11.44021         4.17589
     2017.36618       -11.19435         4.23815
     2017.36892        -5.80549         4.19265
     2017.37166        -7.99463         4.20862
     2017.37440        -7.91377         4.18148
     2017.37713        -6.91391         4.23656
     2017.37987       -13.02505         4.25013
     2017.38261        -7.09219         4.21500
     2017.38535        -8.80433         4.19026
     2017.38809        -7.41847         4.21341
     2017.39082         1.78939         4.29483
     2017.39356        -0.94875         4.24215
     2017.39630        -3.50889         4.17349
     2017.39904        -1.32303         4.20223
     2017.40177        -3.83117         4.21820
     2017.40451        -3.64731         4.38664
     2017.40725        -0.57445         4.21341
     2017.40999        -6.43559         4.19185
     2017.41273        -1.41773         4.21660
     2017.41546        -6.36487         4.24534
     2017.41820        -5.04701         4.28765
     2017.42094        -5.43615         4.20942
     2017.42368        -7.73929         4.18387
     2017.42642        -4.35843         4.16311
     2017.42915         0.86043         4.22538
     2017.43189         2.89329         4.27647
     2017.43463        -0.53285         4.26929
     2017.43737         0.51200         4.18627
     2017.44010        -0.77914         4.18387
     2017.44284         0.68872         4.21740
     2017.44558         1.97058         4.22857
     2017.44832        -0.77156         4.21261
     2017.45106         2.12930         4.21021
     2017.45379        -1.53384         4.29962
     2017.45653         0.72202         4.37307
     2017.45927        -2.45112         4.24853
     2017.46201        -1.98226         4.26530
     2017.46475        -3.24640         4.20223
     2017.46748         5.26146         4.24454
     2017.47022        -5.82668         4.22698
     2017.47296        -0.83182         4.27647
     2017.47570        -5.09696         4.22379
     2017.47843        -3.01910         4.21979
     2017.48117        -1.38824         4.18866
     2017.48391         2.30462         4.26450
     2017.48665         0.82848         4.22618
     2017.48939         2.78634         4.22219
     2017.49212        -0.93480         4.21820
     2017.49486         1.63306         4.21900
     2017.49760         3.38092         4.29004
     2017.50034         2.58378         4.19664
     2017.50308         4.47564         4.21261
     2017.50581         0.89850         4.21580
     2017.50855        -3.98064         4.23496
     2017.51129        -1.30878         4.27488
     2017.51403        -1.36292         4.29244
     2017.51676        -2.52407         4.25891
     2017.51950        -1.55121         4.27967
     2017.52224         4.87165         4.24135
     2017.52498         1.24851         4.27887
     2017.52772         0.31437         4.37466
     2017.53045        -4.87877         4.21660
     2017.53319        -1.40691         4.23576
     2017.53593         3.09295         4.24694
     2017.53867        -0.33619         4.25252
     2017.54141         8.77767         4.23017
     2017.54414         4.41753         4.18866
     2017.54688         3.47939         4.30202
     2017.54962         0.43525         4.21580
     2017.55236         2.46311         4.26131
     2017.55509         9.85997         4.26929
     2017.55783         3.99183         4.20622
     2017.56057         2.98669         4.23416
     2017.56331         2.20855         4.20862
     2017.56605         7.16041         4.25731
     2017.56878         1.49027         4.23416
     2017.57152         6.83013         4.24773
     2017.57426        -1.46501         4.20463
     2017.57700        -0.18715         4.21341
     2017.57974         2.84171         4.20942
     2017.58247         7.05557         4.19984
     2017.58521         1.44343         4.20542
     2017.58795        -0.55871         4.27009
     2017.59069         7.55915         4.26929
     2017.59342        -1.09899         4.22139
     2017.59616         3.32687         4.23336
     2017.59890         3.06172         4.24135
     2017.60164         1.80558         4.20942
     2017.60438        -0.63156         4.26051
     2017.60711         0.84430         4.21660
     2017.60985        -0.48484         4.27647
     2017.61253         1.68696         4.32756
     2017.61516        -1.25530         4.66684
     2017.61772         7.97039         4.95902
     2017.62023         0.72901         5.34779
     2017.62354         5.58446         4.27647
     2017.62628         8.97232         4.34912
     2017.62902        11.25618         4.53193
     2017.63175         2.65204         4.26131
     2017.63335        36.47871        10.38903
     2017.63723         1.60076         4.20383
     2017.63997         6.33162         4.31479
     2017.64271         6.99048         4.24294
     2017.64544         7.79334         4.26131
     2017.64818         3.86820         4.31639
     2017.65092         7.82006         4.21500
     2017.65366         6.48492         4.19425
     2017.65639         5.67078         4.21261
     2017.65913         7.01264         4.21021
     2017.66187         6.87650         4.23177
     2017.66461         9.51336         4.32517
     2017.66735         5.52122         4.27967
     2017.66883        25.47577        16.87758
     2017.67830         4.65366         4.22059
     2017.68104         4.24351         4.21580
     2017.68377         8.35137         4.28685
     2017.68566        12.18134         7.74906
     2017.69472         9.63181         4.20303
     2017.69746         9.02967         4.32277
     2017.69963        20.69494         5.74374
     2017.70294        10.60739         4.41937
     2017.70568         2.88725         4.32198
     2017.70841         9.68311         4.18706
     2017.71115         7.47997         4.41617
     2017.71389         9.19183         4.26689
     2017.71663        13.82769         4.19744
     2017.71937         8.47355         4.25971
     2017.72210         6.70941         4.21660
     2017.72484         3.44627         4.21181
     2017.72758        10.95813         4.21261
     2017.73032         8.04299         4.24773
     2017.73305         5.56485         4.21500
     2017.73579         5.06671         4.20702
     2017.73853         4.50657         4.19584
     2017.74127         5.28143         4.19425
     2017.74401        14.42329         4.32836
     2017.74674         6.91915         4.29084
     2017.74908         4.22859         5.33661
     2017.75222         0.18087         4.34592
     2017.75496         5.34273         4.19984
     2017.75770         3.85159         4.29004
     2017.76043         6.60445         4.24055
     2017.76317         8.80530         4.29643
     2017.76591         3.81316         4.35391
     2017.76865        10.34102         4.19105
     2017.77138         3.44888         4.18706
     2017.77412         7.02674         4.25891
     2017.77686         6.58360         4.24454
     2017.77960         2.80446         4.36189
     2017.78234         0.62032         4.18547
     2017.78507         0.73418         4.13996
     2017.78781         2.28804         4.18068
     2017.79055         6.12490         4.30122
     2017.79329        12.55676         4.29244
     2017.79597         4.96756         4.37546
     2017.79876         9.55548         4.33076
     2017.80150         9.08734         4.29723
     2017.80424         8.80520         4.22538
     2017.80698         5.02306         4.34193
     2017.80971         2.30892         4.22857
     2017.81245        -3.53122         4.17110
     2017.81519        -3.06236         4.27807
     2017.81793        -3.34050         4.18706
     2017.82067        -4.06164         4.30042
     2017.82340         0.15122         4.18706
     2017.82614         1.38808         4.15912
     2017.82888        -0.12206         4.16311
     2017.83162         6.17680         4.24215
     2017.83436        -1.78034         4.18467
     2017.83709         2.27652         4.34353
     2017.83983        -5.52962         4.19105
     2017.84257        -0.12976         4.15832
     2017.84804        -5.71405         4.20782
     2017.85078        -0.48219         4.22937
     2017.85341         3.81055         4.40899
     2017.85626         2.10753         4.32118
     2017.85900         0.53139         4.93028
     2017.86173         4.05025         4.27408
     2017.86447        -0.19889         4.49042
     2017.86603        -2.14826        11.16098
     2017.90925         7.92288         7.68919
     2017.91102         1.96173         4.28046
     2017.91375        -3.90341         4.27168
     2017.91649        -1.13955         4.19505
     2017.91923         3.51531         4.18627
     2017.92197         1.50117         4.19105
     2017.92470        -5.21398         4.20063
     2017.92744        -9.74712         4.22139
     2017.93018        -8.18226         4.20463
     2017.93292        -5.87740         4.23895
     2017.93566        -5.44754         4.19345
     2017.93839         0.16232         4.21500
     2017.94113        -2.91582         4.21660
     2017.94387         0.88004         4.24135
     2017.94661         0.35390         4.34034
     2017.94935        -2.36224         4.23815
     2017.95208         1.12462         4.29084
     2017.95482         0.70048         4.23736
     2017.95756        -3.44666         4.20303
     2017.96030         5.41620         4.21820
     2017.96303         2.60706         4.18387
     2017.96577         5.00392         4.29244
     2017.96851         2.11978         4.15194
     2017.97125        -4.50136         4.17429
     2017.97399         1.18450         4.19026
     2017.97672        -3.48364         4.17988
     2017.97946        -0.65378         4.17269
     2017.98220        -5.73292         4.15274
     2017.98494        -6.37306         4.15832
     2017.98767       -10.82020         4.22937
     2017.99041        -1.70634         4.19824
     2017.99315        -4.73748         4.23656
     2017.99589        -3.32562         4.22618
     2017.99863        -2.83876         4.15753
     2018.00136        -8.50090         4.14715
     2018.00410        -9.53104         4.18307
     2018.00684        -5.80719         4.20782
     2018.00958        -2.11633         4.18547
     2018.01232        -6.35747         4.19584
     2018.01505        -6.82661         4.17828
     2018.01779        -1.62575         4.14954
     2018.02053        -1.02289         4.22778
     2018.02327         0.20997         4.20542
     2018.02600         2.28983         4.16790
     2018.02874        -1.99231         4.27807
     2018.03148        -5.01845         4.16471
     2018.03422        -6.61759         4.20622
     2018.03696       -11.50373         4.17828
     2018.03969        -8.69187         4.23736
     2018.04243       -10.88601         4.22538
     2018.04517        -9.94215         4.21820
     2018.04791        -4.85529         4.25252
     2018.05065        -1.85743         4.16551
     2018.05338         0.32843         4.23017
     2018.05612        -2.00271         4.24135
     2018.05886        -8.22085         4.17748
     2018.06160        -3.18199         4.21181
     2018.06433        -1.82813         4.34992
     2018.06707         0.09573         4.28845
     2018.06981        -4.45141         4.26450
     2018.07255        -7.22655         4.29244
     2018.07529       -17.24669         4.28765
     2018.07802       -14.88783         4.34273
     2018.08076        -7.47197         4.37147
     2018.08350        -3.88611         4.30840
     2018.08624        -9.71425         4.25891
     2018.08898        -6.76140         4.50718
     2018.09171        -7.39754         4.29882
     2018.09445        -4.27768         4.30601
     2018.09719        -4.47482         4.39063
     2018.09993        -6.24596         4.30282
     2018.10266       -15.76310         4.25332
     2018.10540        -6.17424         4.39622
     2018.10814        -3.00838         4.29164
     2018.11088        -6.29552         4.25572
     2018.11362        -3.48966         4.28206
     2018.11635        -9.20380         4.27009
     2018.11909        -9.82894         4.31719
     2018.12183        -6.84808         4.39941
     2018.12457        -4.35522         4.26609
     2018.12731        -7.35336         4.25731
     2018.13004         1.95750         4.34034
     2018.13278         1.89936         4.26051
     2018.13552         0.06722         4.26450
     2018.13826        -4.76792         4.27967
     2018.14099        -7.26006         4.24853
     2018.14373        -7.63420         4.24933
     2018.14647        -4.74534         4.45449
     2018.14921        -2.34748         4.35151
     2018.15195        -0.35462         4.31319
     2018.15468        -3.96076         4.28126
     2018.15742        -3.08090         4.25652
     2018.16016        -6.75004         4.23336
     2018.16290        -5.79718         4.31000
     2018.16564        -7.65432         4.36987
     2018.16837        -9.53946         4.27647
     2018.17111        -6.84661         4.25811
     2018.17265       -13.04300        12.78711
     2018.19849        -0.53701         4.25492
     2018.20123         3.67085         4.34273
     2018.20397         3.56471         4.24374
     2018.20670        -1.69943         4.21181
     2018.20944        -4.30257         4.23257
     2018.21218        -5.12171         4.26929
     2018.21492       -17.86985         4.26929
     2018.21765        -2.48799         4.18946
     2018.22039        -3.06613         4.19505
     2018.22313        -6.11127         4.19026
     2018.22587       -12.55241         4.17669
     2018.22861       -10.02555         4.19984
     2018.23134       -10.75769         4.15673
     2018.23408        -5.54683         4.17429
     2018.23682        -7.01997         4.18387
     2018.23956       -10.64711         4.18467
     2018.24230       -13.37425         4.18467
     2018.24503        -1.96339         4.19345
     2018.24777        -4.24653         4.24534
     2018.25051        -1.23268         4.18227
     2018.25325        -5.34382         4.19345
     2018.25598       -12.67996         4.15673
     2018.25872        -8.62910         4.29723
     2018.26146        -1.67424         4.34433
     2018.26420         0.69662         4.27567
     2018.26694        -8.20652         4.16072
     2018.26967       -11.88666         4.17589
     2018.27241        -6.56680         4.25652
     2018.27515         0.86406         4.16870
     2018.27789         2.52192         4.31958
     2018.28062       -13.83522         4.28366
     2018.28325       -11.41448         4.34912
     2018.28708        -7.89147         7.98057
     2018.28884        -6.28764         4.15433
     2018.29158        -1.67678         4.32916
     2018.29431       -10.38892         4.21021
     2018.29705        -9.90106         4.45928
     2018.29979        -6.12220         4.16311
     2018.30253        -9.65634         4.25731
     2018.30527        -3.73948         4.15673
     2018.30800        -9.82362         4.59819
     2018.31074        -8.14276         4.13677
     2018.31348        -6.12290         4.12240
     2018.31622        -3.35804         4.15992
     2018.31895        -4.61118         4.27647
     2018.32169        -2.90432         4.14316
     2018.32443        -6.04346         4.14396
     2018.32717        -6.90260         4.19105
     2018.32991        -4.65374         4.30282
     2018.33264        -7.24689         4.22059
     2018.33538        -3.81703         4.34113
     2018.33812        -8.02817         4.30042
     2018.34086         0.24469         4.15912
     2018.34360        -3.49345         4.16152
     2018.34633        -5.94359         4.16072
     2018.34899        -7.98482         4.18946
     2018.35181         2.10013         4.30122
     2018.35455        -1.53101         4.21500
     2018.35728        -3.77515         4.14316
     2018.36002         0.15271         4.29483
     2018.36276        -1.65843         4.20383
     2018.36550         0.32143         4.29084
     2018.36824         1.09229         4.23736
     2018.37097        -0.84285         4.29084
     2018.37371         0.35801         4.17828
     2018.37645        -4.03313         4.29723
     2018.37919        -3.88827         4.17269
     2018.38193        -6.05941         4.22937
     2018.38466         1.67245         4.13517
     2018.38740        -1.55369         4.16311
     2018.39014         3.21617         4.15753
     2018.39288         4.75603         4.20702
     2018.39561        -2.91711         4.22458
     2018.39835         4.20075         4.15992
     2018.40109         1.47561         4.14076
     2018.40383        -1.80953         4.18068
     2018.40657        -3.43067         4.17269
     2018.40930         8.01419         4.28605
     2018.41204         8.44105         4.21021
     2018.41478        -2.42910         4.14076
     2018.42299        -1.09652         4.20702
     2018.42573         4.58034         4.18307
     2018.42847         4.02820         4.14795
     2018.43121         0.25406         4.15114
     2018.43394        -4.06908         4.27168
     2018.43668         0.66278         4.21820
     2018.43942        -0.01236         4.24853
     2018.44216         1.84450         4.16471
     2018.44490        -1.92364         4.14795
     2018.44763        -2.70178         4.29882
     2018.45037        -0.09792         4.16232
     2018.45311        -1.98806         4.15194
     2018.45585         2.89380         4.15992
     2018.45859         2.41366         4.17269
     2018.46132        -2.29648         4.18307
     2018.46406        -1.74562         4.31160
     2018.46680         2.49424         4.20143
     2018.46954         2.02210         4.19345
     2018.47227         0.68996         4.25093
     2018.47501         4.32682         4.20143
     2018.47775         4.38568         4.17349
     2018.48049         7.49154         4.24135
     2018.48323         0.66040         4.23975
     2018.48596         2.85326         4.14635
     2018.48870         1.11612         4.15593
     2018.49144        -0.92202         4.17509
     2018.49418         3.88384         4.23416
     2018.49692         1.00169         4.30681
     2018.49965         1.91055         4.14076
     2018.50239        -1.20959         4.15593
     2018.50513        -2.14073         4.21820
     2018.50787         3.15213         4.18946
     2018.51060         5.14899         4.29962
     2018.51334         6.08285         4.17429
     2018.51608         2.15571         4.16870
     2018.51882         2.02357         4.24694
     2018.52156        -3.62757         4.19425
     2018.52429         0.81229         4.17748
     2018.52703         4.73615         4.21900
     2018.52977         2.51401         4.18307
     2018.53251         6.23487         4.16870
     2018.53525         8.51373         4.18068
     2018.53798         2.23059         4.14715
     2018.54072         7.82645         4.19105
     2018.54346         6.57631         4.17110
     2018.54620         3.35217         4.09845
     2018.54893         5.06003         4.20862
     2018.55167         4.07889         4.22219
     2018.55441         4.82875         4.17110
     2018.55715         7.03361         4.18068
     2018.55989         3.63247         4.25811
     2018.56262         5.09133         4.15194
     2018.56536         5.93719         4.30761
     2018.56810         3.29605         4.18946
     2018.57084         2.74491         4.23097
     2018.57357         7.13877         4.27967
     2018.57631         3.39863         4.28925
     2018.57905         6.64348         4.39302
     2018.58179         5.94534         4.23496
     2018.58453         6.31420         4.30601
     2018.58726         4.54806         4.16631
     2018.59000         8.35392         4.13837
     2018.59274         6.42078         4.17429
     2018.59548        10.40364         4.19505
     2018.59822        10.42550         4.15912
     2018.60095         4.96836         4.13837
     2018.60369         5.03222         4.15274
     2018.60643         5.36908         4.15593
     2018.60917         7.76194         4.30441
     2018.61190         5.70480         4.18148
     2018.61464         7.67266         4.14795
     2018.61738         7.83752         4.14076
     2018.62012         9.50538         4.14875
     2018.62286        10.97624         4.23416
     2018.62556         4.01406         4.33076
     2018.62833         7.72296         4.15753
     2018.63107         5.45082         4.19904
     2018.63381         6.65468         4.31240
     2018.63655         4.85554         4.15753
     2018.63928         8.51540         4.34273
     2018.64202        12.47826         4.52474
     2018.64476         9.57712         4.16471
     2018.64750         4.23998         4.15433
     2018.65023        12.62584         4.25731
     2018.65297         7.24070         4.16790
     2018.65571         9.68156         4.18387
     2018.65845         9.66341         4.14875
     2018.66119        13.50527         4.14076
     2018.66392         7.77113         4.29962
     2018.66666         7.12699         4.16232
     2018.66940         7.51185         4.28605
     2018.67214         5.26771         4.15593
     2018.67488         5.19457         4.16950
     2018.67761         9.72943         4.15593
     2018.68035         6.56229         4.26210
     2018.68309        -0.73485         4.23895
     2018.68583         3.31501         4.30601
     2018.68856         6.52087         4.18946
     2018.69130        14.56273         4.34113
     2018.69404         6.97259         4.31240
     2018.69678         3.27945         4.17828
     2018.69952         2.22631         4.18148
     2018.70225         8.23617         4.51516
     2018.70499         1.36203         4.16711
     2018.70773         4.79889         4.23736
     2018.71047         0.30675         4.16790
     2018.71321         2.53261         4.16311
     2018.71594         3.16147         4.17748
     2018.71868        -3.46267         4.19026
     2018.72142         4.63219         4.19664
     2018.72416         9.73805         4.32118
     2018.72689         7.30091         4.26450
     2018.72963         1.81777         4.24773
     2018.73237         2.68563         4.22059
     2018.73511        -0.17151         4.16471
     2018.73785         5.71535         4.20143
     2018.74058         2.89120         4.15912
     2018.74332         7.17906         4.16631
     2018.74606         3.46692         4.24773
     2018.74880         6.87178         4.15593
     2018.75154         2.92264         4.33235
     2018.75427         5.89550         4.17269
     2018.75701         9.16536         4.21660
     2018.75975         2.09122         4.15194
     2018.76249         5.37208         4.20542
     2018.76522         0.00994         4.41617
     2018.76796         1.36580         4.21820
     2018.77070         5.47666         4.29563
     2018.77344         4.66052         4.26689
     2018.77618         1.21138         4.16232
     2018.77891         6.12724         4.15753
     2018.78165         5.72710         4.38344
     2018.78439         6.20196         4.14236
     2018.78712         4.29481         4.14795
     2018.78987        -4.84332         4.31080
     2018.79260        -3.23546         4.16391
     2018.79534        10.09240         4.15433
     2018.79808        -0.64574         4.20303
     2018.80082         1.87112         4.12639
     2018.80355         4.58398         4.12719
     2018.80629         4.44884         4.25891
     2018.80903         3.34070         4.17748
     2018.81177         9.95756         4.46886
     2018.81451         8.32442         4.30840
     2018.81724         5.34428         4.26290
     2018.81998         5.68714         4.19984
     2018.82272         3.66099         4.27408
     2018.82546         4.44385         4.59499
     2018.82820         0.63971         4.21021
     2018.83093         4.66857         4.19265
     2018.83367         3.71843         4.24534
     2018.83641        12.01729         4.32916
     2018.83915         4.69115         4.21580
     2018.84188         5.47701         4.22698
     2018.84462         3.26887         4.14316
     2018.84736         1.82373         4.17190
     2018.85010         4.27359         4.20542
     2018.85284        -1.10055         4.22618
     2018.85569        -4.82057         4.43134
     2018.85831        -6.06483         4.14396
     2018.86105        -3.19597         4.15274
     2018.86379        -0.95311         4.33954
     2018.86653         0.78575         4.24614
     2018.86926        -2.00539         4.30840
     2018.87200        -1.59053         4.18387
     2018.87474        -0.54767         4.26609
     2018.87748        -0.21681         4.24614
     2018.88021         2.53205         4.26290
     2018.88295         1.25591         4.27647
     2018.88569         0.08077         4.22299
     2018.88843         5.40063         4.25412
     2018.89117         1.28349         4.27887
     2018.89390         5.42135         4.29483
     2018.89664        -2.71579         4.38025
     2018.89938         1.50507         4.30282
     2018.90212        -0.07207         4.26051
     2018.90485         4.45778         4.32118
     2018.90759         4.38464         4.29324
     2018.91033         6.05150         4.24215
     2018.91307         7.41836         4.33555
     2018.91581         1.69322         4.24694
     2018.91854         7.95408         4.34672
     2018.92128        -0.19806         4.22299
     2018.92402         0.96380         4.31878
     2018.92676         1.95366         4.24454
     2018.92950         6.33252         4.29723
     2018.93223         1.92338         4.29244
     2018.93497        -0.94376         4.25093
     2018.93771        -0.43790         4.24933
     2018.94045         3.49596         4.23097
     2018.94318         1.09182         4.16950
     2018.94592         2.19168         4.20063
     2018.94866         0.02454         4.27248
     2018.95140         9.91640         4.29004
     2018.95414         7.98726         4.29803
     2018.95687         3.75712         4.21261
     2018.95961         6.10198         4.24055
     2018.96235         9.35384         4.19984
     2018.96509         7.81670         4.29004
     2018.96783         2.08856         4.33395
     2018.97056         3.79642         4.20862
     2018.97330         0.72328         4.18307
     2018.97604        -7.10986         4.24454
     2018.97878        -0.55500         4.18068
     2018.98151        -9.39114         4.19265
     2018.98425        -1.52628         4.41857
     2018.98699        -5.00843         4.33315
     2018.98973        -3.09457         4.22219
     2018.99247         4.67129         4.28525
     2018.99520        -1.25385         4.28046
     2018.99794       -12.60499         4.57344
     2018.99971        -7.37514         8.24321
     2019.00427       -10.28037         6.67535
     2019.00616        -8.41141         4.25332
     2019.00889         3.02345         4.29723
     2019.01163         0.67331         4.23177
     2019.01437        10.50417         4.31080
     2019.01711         5.32103         4.19664
     2019.01984        -8.23611         4.25412
     2019.02258        -4.89925         4.24055
     2019.02532        -5.07439         4.42895
     2019.02806        -1.43253         4.50239
     2019.03080        -2.26567         4.23177
     2019.03353        -9.38581         4.14555
     2019.03627       -10.19695         4.12559
     2019.03901        -2.52809         4.15673
     2019.04175        -1.11123         4.14076
     2019.04449         2.13663         4.15433
     2019.04722        -4.77551         4.22379
     2019.04996        -7.02665         4.29004
     2019.05270        -9.50279         4.30840
     2019.05544        -6.30193         4.34912
     2019.05817        -4.97407         4.30840
     2019.06091         1.71279         4.47924
     2019.06365        -4.49735         4.23656
     2019.06639        -2.12850         4.22937
     2019.06913        -6.12864         4.25971
     2019.07186        -5.61578         4.29483
     2019.07460        -5.89392         4.16631
     2019.07734         1.48194         4.16631
     2019.08008         0.35980         4.15194
     2019.08282        -2.19334         4.28605
     2019.08555         0.27652         4.18227
     2019.08829        -0.78262         4.19345
     2019.09103         4.87524         4.25013
     2019.09377         2.91910         4.16391
     2019.09650         2.34196         4.14875
     2019.09924         0.64982         4.16631
     2019.10198        -5.16032         4.15593
     2019.10472        -4.15446         4.19265
     2019.10746        -3.85460         4.17748
     2019.11019        -6.03074         4.16311
     2019.11287        -3.36494         4.33874
     2019.11613         0.40846         5.29350
     2019.11841        10.28984         4.18068
     2019.12388         7.94656         4.33076
     2019.12662         2.03542         4.19105
     2019.12936        -1.67372         4.17748
     2019.13210        -3.09286         4.46168
     2019.13483        -5.77700         4.21021
     2019.13757        -1.48114         4.31878
     2019.14031        -1.35328         4.42017
     2019.14305        -0.37942         4.33076
     2019.14579        -6.06756         4.19185
     2019.14852        -2.09571         4.19425
     2019.15126        -0.74285         4.19105
     2019.15400        -6.92799         4.18307
     2019.15674        -4.57713         4.15354
     2019.15948        -3.82227         4.24374
     2019.16221        -6.40041         4.22698
     2019.16495        -5.83055         4.13517
     2019.16769       -10.85069         4.13837
     2019.17043        -7.57983         4.28925
     2019.17316        -6.98297         4.14475
     2019.17590        -2.81811         4.16711
     2019.17864        -1.99325         4.38903
     2019.18138        -3.03539         4.21021
     2019.18400       -12.88565         4.37865
     2019.18663        -8.86091         4.59180
     2019.18931        -2.92711         4.74667
     2019.19182        -3.44149         5.39329
     2019.19507        -6.34209         4.22778
     2019.19780        -7.83523         4.26051
     2019.20054        -6.41837         4.24614
     2019.20328       -11.01551         4.15992
     2019.20602        -9.68465         4.16790
     2019.20876        -6.76379         4.15593
     2019.21149        -7.94093         4.41059
     2019.21423        -0.63407         4.15034
     2019.21697        -7.17121         4.15034
     2019.21971        -5.24335         4.46567
     2019.22245        -5.94649         4.14555
     2019.22518        -5.06363         4.14236
     2019.22792         0.75523         4.15274
     2019.23066        -7.80992         4.16790
     2019.23340        -4.16706         4.15114
     2019.23613        -5.82820         4.17589
     2019.23887        -6.11334         4.17429
     2019.24161        -9.14848         4.26051
     2019.24435        -6.14662         4.21341
     2019.24709        -7.22476         4.21900
     2019.24982        -1.58790         4.31000
     2019.25256         0.00896         4.27647
     2019.25530        -2.79718         4.23576
     2019.25804        -3.00332         4.19584
     2019.26078        -1.14346         4.19105
     2019.26351        -4.46860         4.20143
     2019.26625        -1.34974         4.17269
     2019.26899        -2.34288         4.44332
     2019.27173         1.49198         4.37067
     2019.27446        -9.26916         4.10883
     2019.27720        -1.44130         4.23496
     2019.27994        -1.89344         4.18946
     2019.28268        -1.39758         4.18068
     2019.28541         2.88227         4.23257
     2019.28815         0.70814         4.20063
     2019.29089        -1.59200         4.14236
     2019.29363        -4.39614         4.19265
     2019.29637         0.31272         4.25173
     2019.29911         2.31158         4.15034
     2019.30179        -2.96362         4.18786
     2019.30458        -8.86670         4.15593
     2019.30732        -5.11684         4.24853
     2019.31006        -2.08998         4.22059
     2019.31279        -4.74213         4.21580
     2019.31553         4.92173         4.18387
     2019.31827        -3.30941         4.18547
     2019.32101        -3.65155         4.15433
     2019.32375       -13.14069         4.16870
     2019.32648        -3.87683         4.26929
     2019.32922        -4.53697         4.16471
     2019.33196        -4.28211         4.25412
     2019.33470        -1.37925         4.29164
     2019.33744        -1.87839         4.15433
     2019.34017        -2.56053         4.18068
     2019.34291         1.42233         4.16471
     2019.34565        -2.15581         4.25412
     2019.34839        -7.62595         4.22857
     2019.35112        -1.97009         4.14635
     2019.35386        -3.30123         4.21261
     2019.35660        -0.86437         4.19984
     2019.35934         1.14349         4.21101
     2019.36208        -0.23165         4.18547
     2019.36481        -0.63679         4.16711
     2019.36755         1.93407         4.21580
     2019.37029        -1.93807         4.19824
     2019.37303         5.38179         4.21500
     2019.37577         0.29565         4.24773
     2019.37850         2.26851         4.18786
     2019.38124         4.13537         4.16711
     2019.38398         3.52923         4.17908
     2019.38672         1.65709         4.45848
     2019.39219         3.58080         5.49467
     2019.39493        -0.57434         4.15673
     2019.39767         2.88952         4.14635
     2019.40041        -0.30162         4.16950
     2019.40314         5.05124         4.19265
     2019.40588         5.68410         4.17669
     2019.40862        -0.73304         4.16311
     2019.41136         1.51682         4.14715
     2019.41410         1.66768         4.15354
     2019.41683         3.44154         4.18946
     2019.41957         6.53940         4.34193
     2019.42231        -5.95274         4.22538
     2019.42505         6.24512         4.26849
     2019.42778         1.48598         4.30361
     2019.43052         2.34484         4.24135
     2019.43326        -0.11130         4.19026
     2019.43600        -1.41244         4.23656
     2019.43874        -2.46858         4.29563
     2019.44147        -1.66772         4.24534
     2019.44421        -0.67786         4.23576
     2019.44695         2.95600         4.30361
     2019.44969         5.19686         4.36668
     2019.45243         2.99672         4.24614
     2019.45516        -0.83242         4.28605
     2019.45790        -0.19056         4.24294
     2019.46064         2.07530         4.26370
     2019.46338         0.74816         4.48642
     2019.46611         0.88502         4.45130
     2019.46885         5.58688         4.43054
     2019.47159         1.60474         4.30361
     2019.47433         1.21359         4.23736
     2019.47707         4.89245         4.23177
     2019.47980         1.87431         4.29483
     2019.48254         1.71817         4.28366
     2019.48528         1.23903         4.35550
     2019.48802        -0.79211         4.41937
     2019.49076        -0.82425         4.18627
     2019.49349         1.72361         4.15912
     2019.49623        -2.21253         4.28286
     2019.49897         0.78633         4.29723
     2019.50182        -3.52369         7.62054
     2019.50444         0.43205         5.78206
     2019.50713        -1.93615         4.21900
     2019.50969         0.32653         4.52953
     2019.51237        -3.03167         4.63571
     2019.51540         2.74249         4.16631
     2019.51813         1.65135         4.17988
     2019.52087        -1.48579         4.22538
     2019.52361        -1.38193         4.23336
     2019.52635        -1.63007         4.20862
     2019.52908         5.34179         4.43773
     2019.53182        -5.31335         4.31798
     2019.53456        -2.37749         4.47206
     2019.53730        -1.74663         4.31240
     2019.54004         3.98323         4.32916
     2019.54277         7.41109         4.32437
     2019.54551         5.76695         4.46327
     2019.54824         3.66979         4.22458
     2019.55099         0.51667         4.20702
     2019.55373         2.41153         4.37386
     2019.55646         7.04138         4.30521
     2019.55917        -0.56579         4.60537
     2019.56194         4.01510         4.37227
     2019.56468         0.87196         4.28845
     2019.56741        -2.49618         4.28206
     2019.57015        -0.82332         4.14954
     2019.57289         3.66354         4.22857
     2019.57563         2.18440         4.20383
     2019.57837         0.85126         4.25492
     2019.58110         2.13212         4.19105
     2019.58384         6.52098         4.41617
     2019.58658         1.67884         4.17669
     2019.58932         4.87570         4.18387
     2019.59206         8.55956         4.25173
     2019.59479         4.16242         4.15513
     2019.59753         6.63028         4.34992
     2019.60027         6.83614         4.30920
     2019.60301         3.36700         4.21021
     2019.60574         7.36586         4.42895
     2019.60848         2.76472         4.39302
     2019.61122        -0.11342         4.17988
     2019.61396         1.92644         4.30521
     2019.61675         4.59536         4.31719
     2019.61818         2.69385        14.32064
     2019.62211         9.00596         4.40739
     2019.62491         7.05388         4.25013
     2019.62765         8.31774         4.18227
     2019.63039         9.45860         4.21261
     2019.63312        -0.56254         4.18467
     2019.63586        13.05632         4.38185
     2019.63860         8.85617         4.28046
     2019.64134         4.54703         4.28525
     2019.64407         2.70289         4.22618
     2019.64681        -2.29425         4.17748
     2019.64955         1.43161         4.28446
     2019.65229         3.87847         4.25971
     2019.65503         2.31033         4.25252
     2019.65776         5.37519         4.30761
     2019.66050        -1.62795         4.26131
     2019.66324         2.17391         4.22857
     2019.66598         2.87677         4.24135
     2019.66872        -0.00337         4.19664
     2019.67145         1.43749         4.24294
     2019.67419        -0.67565         4.17988
     2019.67693        -0.47679         4.32756
     2019.67967         2.05107         4.40819
     2019.68240         2.66393         4.31958
     2019.68514         3.64279         4.29563
     2019.68788         3.95265         4.26290
     2019.69062         2.94951         4.20622
     2019.69336        -0.38463         4.27328
     2019.69609         3.95023         4.22059
     2019.69883        -0.28491         4.49121
     2019.70157         2.29295         4.23895
     2019.70431         2.46681         4.24294
     2019.70705        -4.17133         4.18467
     2019.70978         5.52753         4.28605
     2019.71252        -3.54561         4.21181
     2019.71526        -1.74975         4.14396
     2019.71800         3.24311         4.40260
     2019.72073         2.14396         4.32916
     2019.72347         3.30482         4.18946
     2019.72621        -5.74932         4.28525
     2019.72895         4.77154         4.22937
     2019.73169         4.80440         4.22937
     2019.73442        14.03726         4.28366
     2019.73716         7.88312         4.19105
     2019.73990         5.03498         4.37147
     2019.74264         3.37984         4.26609
     2019.74538         2.16870         4.14475
     2019.74811         2.44756         4.31878
     2019.75085         3.03642         4.39143
     2019.75359         2.97628         4.38823
     2019.75633         4.32314         4.29882
     2019.75906        -1.29700         4.20303
     2019.76180         1.95786         4.16790
     2019.76454         4.69872         4.19984
     2019.76728         7.58458         4.34912
     2019.77002         1.47344         4.24454
     2019.77275        -1.96970         4.34113
     2019.77549         2.75816         4.26370
     2019.77823         5.69202         4.29803
     2019.78097         8.96488         4.29084
     2019.78371         2.67674         4.25412
     2019.78644         4.03860         4.31639
     2019.78918         4.98846         4.46327
     2019.79192        13.53732         4.30681
     2019.79466        19.18918         4.30441
     2019.79739         5.45704         4.30920
     2019.80013         8.01189         4.27887
     2019.80287         5.92075         4.27168
     2019.80561        -0.89139         4.35071
     2019.80835        -0.40853         4.23336
     2019.81108        -1.56367         4.26131
     2019.81382         2.83719         4.46806
     2019.81656         1.70205         4.29004
     2019.81930         0.90691         4.26131
     2019.82203        -0.05823         4.26609
     2019.82477         0.15663         4.26370
     2019.82751        -1.27351         4.29483
     2019.83025         0.91535         4.36189
     2019.83299         0.42221         4.39223
     2019.83572         0.34207         4.27328
     2019.83846         5.12293         4.25731
     2019.84120         1.34579         4.24773
     2019.84394         2.47765         4.41378
     2019.84668        -3.79649         4.27248
     2019.84941         1.51237         4.27488
     2019.85215         3.89823         4.29084
     2019.85489         9.29009         4.35151
     2019.85763         0.68195         4.26370
     2019.86036         4.39581         4.45290
     2019.86310         0.41167         4.29723
     2019.86584         7.93553         4.30521
     2019.86858         8.49139         4.27168
     2019.87132         1.68625         4.43693
     2019.87405         7.89311         4.31160
     2019.87679         2.54997         4.47206
     2019.87953         7.28083         4.32517
     2019.88227        14.40468         4.27408
     2019.88501         6.38454         4.24215
     2019.88774         7.95040         4.34353
     2019.89048         7.67726         4.24933
     2019.89322         7.89312         4.30122
     2019.89596         4.92198         4.30681
     2019.89869         6.55084         4.24055
     2019.90143         8.05370         4.21500
     2019.90417         8.15156         4.24454
     2019.90691         5.39042         4.24135
     2019.90965         3.44628         4.23975
     2019.91238         3.86014         4.21421
     2019.91512         8.19800         4.26131
     2019.91786        10.96786         4.18547
     2019.92060         4.16472         4.20862
     2019.92334        11.59158         4.30361
     2019.92607         5.87444         4.23975
     2019.92881         6.14530         4.24055
     2019.93155         5.53016         4.19984
     2019.93429         4.06502         4.19904
     2019.93702         3.79688         4.24534
     2019.93976         3.62974         4.34034
     2019.94250        -0.85340         4.27567
     2019.94524        -2.19554         4.26210
     2019.94798        -3.32468         4.22538
     2019.95071         1.34218         4.39542
     2019.95345         5.93404         4.25412
     2019.95619         5.77390         4.28925
     2019.95893         0.59276         4.26849
     2019.96167         6.27562         4.23097
     2019.96440         3.56847         4.31240
     2019.96714        -4.92067         4.32038
     2019.96988        -6.10581         4.26051
     2019.97262        -0.22395         4.25332
     2019.97535         0.86791         4.22618
     2019.97809        -1.91523         4.19105
     2019.98083        -3.46937         4.22857
     2019.98357        -4.12951         4.21979
     2019.98631         2.97535         4.23257
     2019.98904        -0.33479         4.25252
     2019.99178         0.36607         4.22618
     2019.99452        -1.87507         4.23815
     2019.99726         8.67179         4.27967
     2020.00000        14.47765         4.28765
     2020.00273         5.61751         4.21740
     2020.00547         4.96537         4.38584
     2020.00821         5.91823         4.36429
     2020.01095         0.63509         4.36828
     2020.01368        -6.48405         4.48084
     2020.01642        -3.06919         4.34832
     2020.01916         1.04467         4.26370
     2020.02190        -1.94947         4.30601
     2020.02464        -5.71461         4.33794
     2020.02737         2.35225         4.23815
     2020.03011        -6.76789         4.39302
     2020.03285        -8.15903         4.21580
     2020.03559        -0.05317         4.15753
     2020.03833        -1.31831         4.15753
     2020.04106        -2.18245         4.29882
     2020.04380        -7.58859         4.26450
     2020.04654        -4.66374         4.15114
     2020.04928        -1.07588         4.15433
     2020.05201        -3.54802         4.18387
     2020.05475        -2.58216         4.19026
     2020.05749        -3.35730         4.17429
     2020.06023        -8.17244         4.20223
     2020.06297        -0.54358         4.33156
     2020.06570         1.66528         4.17748
     2020.06844        -3.89186         4.25093
     2020.07118         2.01000         4.17589
     2020.07392        -5.24114         4.21341
     2020.07666        -5.57428         4.21261
     2020.07939        -5.98242         4.15354
     2020.08213        -2.98556         4.13837
     2020.08487        -4.63270         4.19744
     2020.08761        -2.11984         4.16311
     2020.09034        -6.45998         4.15034
     2020.09308        -4.25012         4.17190
     2020.09582        -0.82226         4.14954
     2020.09856        -4.29040         4.19105
     2020.10130        -6.76454         4.16790
     2020.10403        -4.35268         4.27887
     2020.10677        -7.40482         4.19664
     2020.10951       -11.20596         4.24215
     2020.11225        -3.44810         4.14795
     2020.11498        -3.84924         4.15593
     2020.11772        -3.21238         4.36908
     2020.12046        -5.80552         4.32038
     2020.12320        -5.50066         4.14396
     2020.12594        -3.29280         4.12959
     2020.12867        -5.60795         4.11761
     2020.13141        -8.52409         4.23576
     2020.13415        -9.48223         4.26929
     2020.13689        -5.46737         4.36828
     2020.13963        -4.97651         4.21500
     2020.14236        -4.00665         4.27727
     2020.14510         3.01321         4.22379
     2020.14784        -3.31493         4.20542
     2020.15058        -8.12207         4.19584
     2020.15331        -7.91921         4.21261
     2020.15605        -7.33235         4.13677
     2020.15879        -1.27949         4.19265
     2020.16153        -0.85763         4.21500
     2020.16427        -2.11277         4.17589
     2020.16700        -0.95091         4.21101
     2020.16974        -5.96105         4.19105
     2020.17248        -3.40719         4.19744
     2020.17522        -2.59633         4.22458
     2020.17796        -5.30047         4.14875
     2020.18069        -5.75261         4.16631
     2020.18343        -5.22675         4.15274
     2020.18617        -6.58589         4.13677
     2020.18891         0.23497         4.19744
     2020.19164        -1.21317         4.36748
     2020.19438        -8.59631         4.23257
     2020.19712        -5.16945         4.22379
     2020.19986        -3.76759         4.20303
     2020.20260        -2.37573         4.26290
     2020.20533        -0.53787         4.22219
     2020.20807        -2.23902         4.23656
     2020.21081        -8.03416         4.22538
     2020.21355        -5.20330         4.64449
     2020.21629        -5.04844         4.41697
     2020.21902        -2.51658         4.28685
     2020.22176        -4.08472         4.26131
     2020.22450         3.88114         4.26689
     2020.22724        -2.83200         4.21261
     2020.22997        -1.75014         4.19904
     2020.23271        -2.97128         4.25492
     2020.23545        -0.36442         4.22219
     2020.23819        -4.72656         4.23496
     2020.24093        -6.23570         4.22937
     2020.24366        -0.71784         4.38823
     2020.24640        -1.53898         4.23017
     2020.24914        -7.38512         4.20942
     2020.25188        -3.72926         4.26051
     2020.25462        -6.17940         4.30681
     2020.25732        -1.30757         4.26210
     2020.26006         3.68628         4.35550
     2020.26283         0.22718         4.24773
     2020.26557        -2.17996         4.23815
     2020.26830        -4.62510         4.23017
     2020.27104        -1.39924         4.34513
     2020.27378        -1.83438         4.21660
     2020.27652        -3.54152         4.24294
     2020.27926        -1.28666         4.63012
     2020.28199        -2.69480         4.31399
     2020.28473        -5.62394         4.25971
     2020.28747        -2.48708         4.26051
     2020.29021        -2.39223         4.22219
     2020.29295        -0.86737         4.35550
     2020.29568        -0.53551         4.25492
     2020.29842         1.44335         4.23736
     2020.30116         2.23321         4.20542
     2020.30390        -1.80593         4.22538
     2020.30663        -1.35307         4.23895
     2020.30937        -0.90421         4.32677
     2020.31211        -3.85735         4.35950
     2020.31485        -0.77649         4.42176
     2020.31759        -0.02463         4.16311
     2020.32032         5.20323         4.27647
     2020.32306        -0.40991         4.20782
     2020.32580         4.94895         4.21979
     2020.32854         1.66581         4.21820
     2020.33128        -4.22533         4.14475
     2020.33401        -1.32847         4.19505
     2020.33675         4.15239         4.27807
     2020.33949        -0.86375         4.20303
     2020.34223        -4.49589         4.32357
     2020.34496        -7.26003         4.29483
     2020.34770       -10.07017         5.86828
     2020.35044        -3.85831         4.25652
     2020.35318        -2.94345         4.27887
     2020.35592        -0.23659         4.30920
     2020.35865        -0.06673         4.24294
     2020.36139        -0.75387         4.14475
     2020.36413        -0.74901         4.15673
     2020.36687        -1.20215         4.25971
     2020.36961        -1.78529         4.24534
     2020.37234        -1.57644         4.21021
     2020.37508         3.07542         4.23017
     2020.37782         1.66528         4.17828
     2020.38056        -5.19786         4.22458
     2020.38329        -2.77200         4.18706
     2020.38603        -1.76314         4.28925
     2020.38877        -2.47628         4.30122
     2020.39151        -3.49542         4.15433
     2020.39425        -2.93156         4.15274
     2020.39698        -2.94870         4.22778
     2020.39972        -5.44384         4.17190
     2020.40246        -0.02398         4.20542
     2020.40520        -3.03612         4.27967
     2020.40794        -1.00026         4.17030
     2020.41067         1.75660         4.25731
     2020.41341        -4.67254         4.19265
     2020.41615        -2.46468         4.19345
     2020.41889         1.26318         4.43214
     2020.42162        -5.16596         4.17030
     2020.42436        -4.06310         4.35071
     2020.42710         0.36576         4.38823
     2020.42984        -3.98138         4.27408
     2020.43258         1.36448         4.28046
     2020.43531        -1.94566         4.29404
     2020.43805        -2.53880         4.26769
     2020.44079        -4.88294         4.27328
     2020.44353         2.60692         4.31240
     2020.44621        -5.46528         4.30122
     2020.44900         0.47464         4.28206
     2020.45174         0.52250         4.20383
     2020.45448        -0.03765         4.21101
     2020.45722        -0.68479         4.19185
     2020.45995         1.96307         4.18227
     2020.46269        -3.54107         4.17110
     2020.46543        -2.03321         4.19984
     2020.46817        -0.26935         4.20782
     2020.47091         1.40751         4.21500
     2020.47364         0.93837         4.18467
     2020.47638         3.85323         4.15912
     2020.47912         1.70409         4.24614
     2020.48186         0.19195         4.20702
     2020.48459        -0.62019         4.41298
     2020.48733         0.21667         4.38185
     2020.49007         3.44953         4.27647
     2020.49292         2.58251         4.53432
     2020.49555        -0.09675         4.25173
     2020.49828         0.61211         4.18148
     2020.50102        -4.48503         4.19505
     2020.50376        -2.55317         4.26769
     2020.50650        -3.45031         4.16551
     2020.50924        -4.08545         4.18307
     2020.51197        -1.58159         4.15992
     2020.51471        -3.65773         4.19984
     2020.51745         0.91213         4.16790
     2020.52019         3.26199         4.34513
     2020.52292         3.66685         4.28366
     2020.52566         2.81571         4.28446
     2020.52840        11.93157         4.30920
     2020.53114         2.26343         4.24694
     2020.53388         0.91828         4.27807
     2020.53661         2.65914         4.29483
     2020.53935         1.22500         4.38025
     2020.54209        -0.09114         4.25811
     2020.54483         1.44772         4.25811
     2020.54757         2.38458         4.25173
     2020.55030         4.59344         4.26450
     2020.55304         9.75130         4.39302
     2020.55578         1.37016         4.39622
     2020.55852         3.99102         4.25252
     2020.56125         5.58588         4.25492
     2020.56399         3.53674         4.23336
     2020.56673         4.53860         4.46567
     2020.56947         9.44346         4.28286
     2020.57221         7.92932         4.52474
     2020.57494         5.95218         4.28765
     2020.57768        10.79504         4.30361
     2020.58042        -3.70210         4.32198
     2020.58316         3.84676         4.46248
     2020.58590         2.95262         4.34113
     2020.58863         8.63248         4.27488
     2020.59137         7.44834         4.26689
     2020.59409         7.71217         4.35471
     2020.59685        12.76806         4.60377
     2020.59958         5.74992         4.35790
     2020.60232        -0.60622         4.28286
     2020.60506         3.60464         4.30681
     2020.60780        11.03050         4.37706
     2020.61054         6.86236         4.32118
     2020.61327         9.02922         4.30282
     2020.61601         6.64207         4.29723
     2020.61875         1.89393         4.29962
     2020.62149         3.16979         4.28286
     2020.62423         7.00065         4.34992
     2020.62696         7.38751         4.36588
     2020.62970         6.70637         4.32597
     2020.63244         5.90323         4.30521
     2020.63523         3.39215         4.58382
     2020.63791         9.73195         4.44571
     2020.64065         7.88481         4.34832
     2020.64339         3.19267         4.35391
     2020.64613         9.88353         4.38744
     2020.64887         7.01739         4.30441
     2020.65160         7.81125         4.32517
     2020.65434         5.83211         4.37786
     2020.65708         6.73997         4.35550
     2020.65982         8.84183         4.37865
     2020.66256         6.27069         4.29962
     2020.66529         6.73755         4.30761
     2020.66803         6.93741         4.25093
     2020.67077         7.76927         4.32517
     2020.67351        11.97513         4.32038
     2020.67624        11.06899         4.32756
     2020.67898         0.79885         4.25332
     2020.68172         4.25571         4.26849
     2020.68446         6.24957         4.32437
     2020.68720         2.79443         4.31080
     2020.68993         6.14729         4.66125
     2020.69267         9.35915         4.38185
     2020.69541         7.09901         4.46966
     2020.69815         6.53986         4.32517
     2020.70089         4.22172         4.26609
     2020.70362         7.25458         4.45769
     2020.70636        15.53744         4.82011
     2020.70910         4.97830         4.60617
     2020.71184         7.42716         4.35071
     2020.71457         5.74802         4.47365
     2020.71731         2.08788         4.38664
     2020.72005        -0.37526         4.44252
     2020.72279         1.23960         4.30282
     2020.72553         8.69246         4.35471
     2020.72826        -0.90668         4.52394
     2020.73100         8.42818         4.57184
     2020.73374        12.86904         4.43214
     2020.73648        12.45790         4.32357
     2020.73921         2.16776         4.37147
     2020.74195         5.59362         4.38504
     2020.74469         3.40448         4.28845
     2020.74743         3.66634         4.29723
     2020.75017         3.78020         4.28685
     2020.75290         5.77306         4.33395
     2020.75564         0.40192         4.24694
     2020.75838         5.00378         4.23736
     2020.76112         7.26064         4.48323
     2020.76386         1.82050         4.26210
     2020.76659         8.08536         4.26689
     2020.76933         3.64522         4.43374
     2020.77207         4.05708         4.26769
     2020.77481        11.37894         4.32597
     2020.77754         6.17880         4.33315
     2020.78028        11.44665         4.45769
     2020.78302         8.35351         4.39861
     2020.78576         2.88937         4.36908
     2020.78850         5.35123         4.26450
     2020.79123         8.02309         4.32198
     2020.79397        -0.41905         4.33714
     2020.79671         7.45281         4.49281
     2020.79945        -1.64233         4.30361
     2020.80219         1.87253         4.38664
     2020.80492         4.53639         4.31719
     2020.80766        -0.15375         4.35471
     2020.81040        -0.16289         4.32836
     2020.81314         1.46997         4.33954
     2020.81587        -2.87117         4.28525
     2020.81861        -0.80731         4.27248
     2020.82132         0.03352         4.41937
     2020.82409         4.11841         4.28525
     2020.82683         1.68827         4.36189
     2020.82956         2.66413         4.40659
     2020.83230        -1.84101         4.36189
     2020.83504        -0.40115         4.33555
     2020.83778         0.40971         4.25572
     2020.84052        13.49557         4.40739
     2020.84325        10.75743         4.51915
     2020.84599         6.90129         4.49840
     2020.84873         7.58515         4.31798
     2020.85147        -2.03699         4.19744
     2020.85420         5.56187         4.18307
     2020.85694         8.28373         4.34672
     2020.85968         9.90959         4.36748
     2020.86242         9.51744         4.26769
     2020.86516         5.57830         4.38823
     2020.86789         7.84416         4.38983
     2020.87063        15.14702         4.29084
     2020.87337        11.73988         4.41059
     2020.87611         8.01274         4.47046
     2020.87885        13.51660         4.48962
     2020.88158         3.54546         4.42256
     2020.88432         3.62532         4.32038
     2020.88706         3.26918         4.48962
     2020.88980        -1.31196         4.33235
     2020.89253         1.99390         4.31958
     2020.89527         6.11676         4.47445
     2020.89801         1.41062         4.44651
     2020.90075         6.77148         4.35151
     2020.90349         2.80034         4.30361
     2020.90622         3.60420         4.34992
     2020.90896         6.86906         4.47525
     2020.91170        -1.61408         4.46966
     2020.91444         1.39378         4.44092
     2020.91718        -3.58236         4.30761
     2020.91991        -4.04850         4.29803
     2020.92265        -2.11164         4.38664
     2020.92539        -4.29078         4.31080
     2020.92813        -5.58492         4.29324
     2020.93086        -2.07106         4.29164
     2020.93360        -3.76020         4.34193
     2020.93634        -3.71634         4.33475
     2020.93908        -5.40148         4.32597
     2020.94182        -8.21463         4.27088
     2020.94455        -4.70777         4.28286
     2020.94729        -8.41591         4.26769
     2020.95003        -9.23705         4.37865
     2020.95277       -12.17819         4.28286
     2020.95551        -8.27333         4.33555
     2020.95824        -3.63947         4.31798
     2020.96098        -1.71661         4.29404
     2020.96372        -8.62575         4.33315
     2020.96646        -5.25989         4.38344
     2020.96919        -9.10103         4.38105
     2020.97193        -8.70117         4.27088
     2020.97467        -4.15831         4.37227
     2020.97741       -10.67845         4.40420
     2020.98015        -4.78459         4.43214
     2020.98288        -4.40273         4.36987
     2020.98562         6.79513         4.24135
     2020.98836         4.78299         4.25412
     2020.99110        -1.18015         4.25412
     2020.99384        -3.29429         4.25731
     2020.99657        -1.03843         4.23736
     2020.99931         2.70543         4.21900
     2021.00205        -4.36071         4.26051
     2021.00479         8.62415         4.44970
     2021.00752        -0.32099         4.26689
     2021.01026        -1.08813         4.24853
     2021.01300         4.03873         4.22698
     2021.01574        -2.38841         4.27887
     2021.01848        -3.65655         4.21740
     2021.02121        -3.51369         4.29882
     2021.02395        -7.08184         4.22139
     2021.02669        -2.93398         4.29244
     2021.02943        -6.25912         4.27967
     2021.03216        -2.23626         4.37466
     2021.03490        -1.42440         4.36429
     2021.03764        -7.67754         4.26290
     2021.04038        -5.07868         4.27567
     2021.04312        -4.94382         4.28685
     2021.04585        -1.42996         4.31958
     2021.04859        -7.70610         4.22458
     2021.05133       -10.09624         4.23336
     2021.05407        -2.07238         4.49361
     2021.05681        -1.84252         4.36908
     2021.05954        -6.92966         4.26689
     2021.06228       -10.01280         4.23576
     2021.06502        -5.05594         4.23815
     2021.06776         2.03692         4.33874
     2021.07049        -4.61922         4.24055
     2021.07323        -1.90136         4.30441
     2021.07597        -8.45750         4.35710
     2021.07871        -7.60364         4.24534
     2021.08145        -5.97578         4.22458
     2021.08418       -10.70792         4.37307
     2021.08692        -9.28606         4.28925
     2021.08966        -6.35720         4.32836
     2021.09240       -11.78634         4.28765
     2021.09514        -8.81148         4.36109
     2021.09787        -3.61862         4.36588
     2021.10061        -7.90476         4.25492
     2021.10335        -4.21890         4.23177
     2021.10609        -8.54305         4.28046
     2021.10882        -7.67019         4.32357
     2021.11156        -9.48033         4.23895
     2021.11425       -10.99552         4.31000
     2021.11704       -10.44261         5.44837
     2021.11978        -5.48075         4.24294
     2021.12251        -8.55189         4.22618
     2021.12525        -8.54003         4.24614
     2021.12799        -1.10617         4.32038
     2021.13073        -4.25531         4.24773
     2021.13347       -10.76845         4.33315
     2021.13620        -2.89459         4.31479
     2021.13894       -10.18273         4.19505
     2021.14168        -6.31687         4.24534
     2021.14442        -5.57901         4.34034
     2021.14715        -8.55815         4.27168
     2021.14989       -13.99329         4.21660
     2021.15263        -8.40843         4.36828
     2021.15537         0.68043         4.54470
     2021.15811        -5.49171         4.44411
     2021.16084        -5.52985         4.34113
     2021.16358        -4.90299         4.30361
     2021.16632        -5.73313         4.37227
     2021.16906        -3.88227         4.21580
     2021.17180        -9.71841         4.24694
     2021.17453       -10.60355         4.35311
     2021.17727        -2.34869         4.40739
     2021.18001       -10.29183         4.37067
     2021.18275       -13.34497         4.41538
     2021.18548       -14.49711         4.20702
     2021.18822       -10.57226         4.19345
     2021.19096        -8.41040         4.21900
     2021.19370       -10.62954         4.29164
     2021.19644       -10.75568         4.23257
     2021.19917       -11.05582         4.28605
     2021.20191        -9.37896         4.19984
     2021.20465        -4.25110         4.22059
     2021.20739        -7.29024         4.25013
     2021.21013        -5.13238         4.37147
     2021.21286       -11.00352         4.55188
     2021.21560        -5.93366         4.27887
     2021.21834        -9.09780         4.22219
     2021.22108        -3.14794         4.34513
     2021.22381       -13.44108         4.23336
     2021.22655        -4.07322         4.22299
     2021.22929         0.62364         4.32996
     2021.23203        -4.99750         4.18786
     2021.23477       -12.75164         4.20223
     2021.23750       -10.78878         4.24933
     2021.24024        -7.29692         4.21979
     2021.24298        -7.18106         4.19584
     2021.24572        -8.70520         4.21421
